%OpenBCI Raw EEG Data
%Number of channels = 8
%Sample Rate = 250.0 Hz
%First Column = SampleIndex
%Last Column = Timestamp 
%Other Columns = EEG data in microvolts followed by Accel Data (in G) interleaved with Aux Data
0, 0.00, 0.00, 0.00, 0.00, 0.00, 0.00, 0.00, 0.00, 0.106, -0.012, 0.996, 15:10:39.397, 1583439039397
1, -2787.46, -188.96, 14651.63, -4683.67, -15604.83, 25006.48, -12443.01, -614.58, 0.000, 0.000, 0.000, 15:10:39.412, 1583439039412
2, -3068.98, -124.23, 14646.09, -4658.98, -15580.69, 25008.14, -12445.63, -620.82, 0.000, 0.000, 0.000, 15:10:39.418, 1583439039418
3, -3663.47, -64.80, 14670.43, -4624.49, -15552.28, 25008.67, -12451.87, -630.23, 0.000, 0.000, 0.000, 15:10:39.418, 1583439039418
4, -3489.42, -70.50, 14678.57, -4648.40, -15561.35, 25016.43, -12450.37, -633.85, 0.000, 0.000, 0.000, 15:10:39.424, 1583439039424
5, -2877.25, -109.99, 14667.86, -4683.23, -15563.43, 25026.91, -12442.46, -630.16, 0.000, 0.000, 0.000, 15:10:39.425, 1583439039425
6, -2999.43, -64.19, 14692.61, -4668.39, -15537.34, 25030.40, -12442.34, -631.62, 0.000, 0.000, 0.000, 15:10:39.433, 1583439039433
7, -3638.60, 15.91, 14721.91, -4639.57, -15508.38, 25029.06, -12449.63, -636.02, 0.000, 0.000, 0.000, 15:10:39.433, 1583439039433
8, -3626.06, 27.51, 14716.70, -4657.19, -15500.67, 25035.21, -12446.55, -638.25, 0.110, -0.018, 1.002, 15:10:39.441, 1583439039441
9, -2999.00, -4.83, 14672.09, -4711.88, -15501.74, 25044.82, -12439.95, -632.64, 0.000, 0.000, 0.000, 15:10:39.441, 1583439039441
10, -2963.48, 30.60, 14644.33, -4715.52, -15481.29, 25047.88, -12441.96, -628.17, 0.000, 0.000, 0.000, 15:10:39.448, 1583439039448
11, -3596.78, 113.75, 14644.86, -4669.12, -15446.55, 25045.55, -12448.85, -632.38, 0.000, 0.000, 0.000, 15:10:39.448, 1583439039448
12, -3750.71, 143.90, 14636.59, -4690.60, -15429.79, 25047.36, -12451.55, -636.24, 0.000, 0.000, 0.000, 15:10:39.455, 1583439039455
13, -3153.54, 113.68, 14607.69, -4743.46, -15431.11, 25057.96, -12446.21, -631.48, 0.000, 0.000, 0.000, 15:10:39.455, 1583439039455
14, -2958.97, 126.35, 14596.11, -4740.18, -15416.24, 25062.03, -12446.86, -627.68, 0.000, 0.000, 0.000, 15:10:39.463, 1583439039463
15, -3551.85, 215.96, 14615.76, -4716.78, -15379.99, 25059.75, -12455.78, -625.65, 0.000, 0.000, 0.000, 15:10:39.464, 1583439039464
16, -3861.87, 265.90, 14633.73, -4716.91, -15362.78, 25059.68, -12460.61, -615.28, 0.000, 0.000, 0.000, 15:10:39.470, 1583439039470
17, -3326.77, 236.01, 14620.86, -4766.17, -15361.24, 25065.33, -12454.62, -601.28, 0.108, -0.016, 1.006, 15:10:39.478, 1583439039478
18, -2993.39, 240.77, 14613.82, -4782.51, -15344.61, 25073.98, -12447.93, -591.14, 0.000, 0.000, 0.000, 15:10:39.478, 1583439039478
19, -3508.06, 330.52, 14624.72, -4777.93, -15311.57, 25076.11, -12450.28, -584.81, 0.000, 0.000, 0.000, 15:10:39.485, 1583439039485
20, -3942.71, 392.83, 14626.15, -4760.00, -15283.65, 25078.12, -12448.40, -580.61, 0.000, 0.000, 0.000, 15:10:39.485, 1583439039485
21, -3507.55, 374.28, 14584.27, -4775.25, -15279.00, 25090.35, -12444.31, -571.98, 0.000, 0.000, 0.000, 15:10:39.493, 1583439039493
22, -3047.12, 364.74, 14526.38, -4812.33, -15281.95, 25096.89, -12434.59, -561.30, 0.000, 0.000, 0.000, 15:10:39.493, 1583439039493
23, -3437.72, 435.57, 14475.95, -4809.20, -15264.41, 25098.86, -12432.20, -557.74, 0.000, 0.000, 0.000, 15:10:39.500, 1583439039500
24, -3976.13, 501.22, 14436.90, -4765.82, -15245.32, 25098.17, -12438.50, -548.98, 0.000, 0.000, 0.000, 15:10:39.500, 1583439039500
25, -3678.36, 482.89, 14376.66, -4777.44, -15244.74, 25109.75, -12427.75, -544.18, 0.000, 0.000, 0.000, 15:10:39.507, 1583439039507
26, -3125.44, 457.38, 14293.02, -4813.58, -15241.94, 25124.77, -12411.92, -544.24, 0.000, 0.000, 0.000, 15:10:39.507, 1583439039507
27, -3381.04, 514.83, 14228.61, -4810.23, -15226.95, 25125.66, -12410.90, -539.01, 0.112, -0.016, 1.006, 15:10:39.516, 1583439039516
28, -3981.09, 586.09, 14199.30, -4779.56, -15209.18, 25130.02, -12413.06, -537.22, 0.000, 0.000, 0.000, 15:10:39.516, 1583439039516
29, -3827.78, 576.63, 14164.77, -4806.12, -15205.69, 25145.24, -12398.91, -539.66, 0.000, 0.000, 0.000, 15:10:39.523, 1583439039523
30, -3216.33, 540.67, 14119.95, -4866.69, -15218.61, 25159.39, -12382.62, -537.54, 0.000, 0.000, 0.000, 15:10:39.523, 1583439039523
31, -3315.14, 584.05, 14102.56, -4844.70, -15212.13, 25165.92, -12368.27, -532.53, 0.000, 0.000, 0.000, 15:10:39.529, 1583439039529
32, -3945.06, 657.32, 14106.19, -4801.71, -15193.64, 25170.54, -12351.73, -538.97, 0.000, 0.000, 0.000, 15:10:39.537, 1583439039537
33, -3952.44, 667.15, 14091.08, -4822.52, -15194.80, 25176.15, -12354.12, -541.31, 0.000, 0.000, 0.000, 15:10:39.537, 1583439039537
34, -3333.11, 628.96, 14068.54, -4872.72, -15208.13, 25197.99, -12365.07, -544.11, 0.000, 0.000, 0.000, 15:10:39.545, 1583439039545
35, -3272.65, 651.15, 14064.34, -4894.27, -15196.73, 25206.93, -12377.66, -518.47, 0.000, 0.000, 0.000, 15:10:39.546, 1583439039546
36, -3894.03, 726.25, 14091.08, -4869.60, -15182.44, 25207.27, -12375.18, -512.35, 0.000, 0.000, 0.000, 15:10:39.553, 1583439039553
37, -4068.96, 733.99, 14119.44, -4848.07, -15184.23, 25215.99, -12368.00, -529.04, 0.110, -0.014, 1.000, 15:10:39.553, 1583439039553
38, -3486.89, 699.50, 14128.13, -4882.69, -15196.73, 25235.95, -12358.50, -528.71, 0.000, 0.000, 0.000, 15:10:39.560, 1583439039560
39, -3268.00, 703.95, 14141.79, -4891.10, -15197.44, 25251.17, -12359.35, -528.57, 0.000, 0.000, 0.000, 15:10:39.560, 1583439039560
40, -3831.89, 777.62, 14180.68, -4869.04, -15173.37, 25244.37, -12366.64, -529.80, 0.000, 0.000, 0.000, 15:10:39.568, 1583439039568
41, -4145.53, 804.51, 14213.43, -4865.13, -15171.51, 25240.21, -12367.80, -533.27, 0.000, 0.000, 0.000, 15:10:39.568, 1583439039568
42, -3621.14, 758.31, 14222.26, -4864.12, -15180.12, 25256.15, -12365.07, -534.27, 0.000, 0.000, 0.000, 15:10:39.576, 1583439039576
43, -3259.42, 748.18, 14224.69, -4882.45, -15177.24, 25263.95, -12360.45, -538.81, 0.000, 0.000, 0.000, 15:10:39.576, 1583439039576
44, -3744.05, 810.68, 14229.86, -4860.10, -15157.23, 25256.46, -12366.86, -541.49, 0.000, 0.000, 0.000, 15:10:39.583, 1583439039583
45, -4189.10, 858.93, 14235.92, -4840.96, -15142.39, 25253.76, -12367.93, -550.86, 0.000, 0.000, 0.000, 15:10:39.583, 1583439039583
46, -3763.09, 826.48, 14219.24, -4863.23, -15143.84, 25263.48, -12356.18, -560.16, 0.000, 0.000, 0.000, 15:10:39.589, 1583439039589
47, -3279.89, 800.75, 14188.46, -4885.00, -15143.57, 25274.86, -12348.24, -558.73, 0.106, -0.014, 0.996, 15:10:39.597, 1583439039597
48, -3646.40, 852.03, 14193.31, -4855.07, -15127.08, 25285.28, -12350.95, -556.04, 0.000, 0.000, 0.000, 15:10:39.598, 1583439039598
49, -4189.81, 909.65, 14195.19, -4823.86, -15110.18, 25299.92, -12352.69, -565.59, 0.000, 0.000, 0.000, 15:10:39.605, 1583439039605
50, -3903.53, 889.85, 14158.73, -4849.86, -15117.67, 25320.86, -12352.74, -565.52, 0.000, 0.000, 0.000, 15:10:39.605, 1583439039605
51, -3328.67, 854.24, 14147.40, -4882.76, -15123.55, 25348.84, -12349.65, -557.39, 0.000, 0.000, 0.000, 15:10:39.613, 1583439039613
52, -3553.73, 895.19, 14174.92, -4833.94, -15116.91, 25368.40, -12357.41, -550.12, 0.000, 0.000, 0.000, 15:10:39.613, 1583439039613
53, -4160.80, 955.92, 14192.64, -4780.84, -15105.29, 25373.50, -12368.67, -548.33, 0.000, 0.000, 0.000, 15:10:39.620, 1583439039620
54, -4025.48, 947.36, 14140.23, -4796.62, -15107.70, 25398.64, -12362.21, -552.80, 0.000, 0.000, 0.000, 15:10:39.620, 1583439039620
55, -3402.70, 904.37, 14027.71, -4839.40, -15122.23, 25425.02, -12359.64, -543.39, 0.000, 0.000, 0.000, 15:10:39.628, 1583439039628
56, -3476.90, 934.88, 13935.51, -4833.81, -15120.89, 25450.16, -12364.78, -549.94, 0.000, 0.000, 0.000, 15:10:39.628, 1583439039628
57, -4108.05, 1002.61, 13859.67, -4802.29, -15106.69, 25483.63, -12367.53, -563.80, 0.106, -0.014, 0.994, 15:10:39.635, 1583439039635
58, -4133.60, 1004.67, 13756.83, -4814.27, -15111.32, 25483.89, -12384.23, -550.84, 0.000, 0.000, 0.000, 15:10:39.635, 1583439039635
59, -3504.84, 967.41, 13614.92, -4867.70, -15127.44, 25475.78, -12387.18, -540.82, 0.000, 0.000, 0.000, 15:10:39.642, 1583439039642
60, -3416.04, 986.29, 13481.90, -4889.13, -15134.52, 25484.56, -12398.45, -528.40, 0.000, 0.000, 0.000, 15:10:39.642, 1583439039642
61, -4031.45, 1048.88, 13416.77, -4846.95, -15122.94, 25483.18, -12402.89, -528.86, 0.000, 0.000, 0.000, 15:10:39.649, 1583439039649
62, -4217.42, 1066.78, 13371.15, -4839.73, -15120.40, 25483.51, -12407.52, -528.71, 0.000, 0.000, 0.000, 15:10:39.650, 1583439039650
63, -3620.13, 1025.19, 13321.84, -4894.32, -15137.76, 25479.83, -12405.49, -522.87, 0.000, 0.000, 0.000, 15:10:39.657, 1583439039657
64, -3369.70, 1021.16, 13272.62, -4924.67, -15144.16, 25475.15, -12401.66, -522.63, 0.000, 0.000, 0.000, 15:10:39.665, 1583439039665
65, -3927.76, 1080.89, 13252.97, -4858.73, -15132.40, 25469.61, -12412.95, -520.46, 0.000, 0.000, 0.000, 15:10:39.665, 1583439039665
66, -4274.30, 1112.36, 13228.83, -4832.56, -15127.46, 25467.62, -12422.47, -515.03, 0.000, 0.000, 0.000, 15:10:39.672, 1583439039672
67, -3770.09, 1074.20, 13176.44, -4877.46, -15136.06, 25469.21, -12413.89, -510.31, 0.106, -0.010, 0.998, 15:10:39.672, 1583439039672
68, -3402.74, 1059.92, 13125.68, -4905.25, -15125.18, 25478.87, -12409.87, -505.57, 0.000, 0.000, 0.000, 15:10:39.680, 1583439039680
69, -3883.93, 1113.72, 13087.30, -4879.32, -15087.78, 25473.30, -12418.32, -499.81, 0.000, 0.000, 0.000, 15:10:39.680, 1583439039680
70, -4354.72, 1156.32, 13041.93, -4860.12, -15053.61, 25468.98, -12423.81, -495.87, 0.000, 0.000, 0.000, 15:10:39.688, 1583439039688
71, -3955.30, 1120.67, 12965.93, -4897.51, -15051.82, 25481.75, -12410.87, -497.26, 0.000, 0.000, 0.000, 15:10:39.688, 1583439039688
72, -3455.18, 1090.74, 12900.33, -4937.19, -15061.54, 25485.88, -12408.84, -490.17, 0.000, 0.000, 0.000, 15:10:39.695, 1583439039695
73, -3796.82, 1138.13, 12875.72, -4923.24, -15054.01, 25470.64, -12411.90, -483.71, 0.000, 0.000, 0.000, 15:10:39.695, 1583439039695
74, -4346.90, 1187.73, 12850.35, -4890.36, -15034.77, 25461.77, -12412.95, -482.10, 0.000, 0.000, 0.000, 15:10:39.703, 1583439039703
75, -4083.80, 1162.13, 12795.75, -4888.80, -15045.67, 25466.21, -12403.74, -480.43, 0.000, 0.000, 0.000, 15:10:39.703, 1583439039703
76, -3507.73, 1127.31, 12744.81, -4904.46, -15081.06, 25455.93, -12401.40, -467.64, 0.110, -0.012, 1.000, 15:10:39.711, 1583439039711
77, -3715.87, 1163.43, 12715.39, -4865.57, -15075.71, 25435.14, -12406.89, -461.72, 0.000, 0.000, 0.000, 15:10:39.711, 1583439039711
78, -4326.45, 1221.81, 12701.45, -4813.83, -15052.65, 25428.53, -12407.92, -463.28, 0.000, 0.000, 0.000, 15:10:39.718, 1583439039718
79, -4219.07, 1209.07, 12677.42, -4789.78, -15057.43, 25428.26, -12410.07, -454.63, 0.000, 0.000, 0.000, 15:10:39.724, 1583439039724
80, -3603.03, 1161.31, 12613.96, -4785.37, -15064.45, 25426.07, -12398.11, -455.53, 0.000, 0.000, 0.000, 15:10:39.724, 1583439039724
81, -3661.69, 1180.60, 12519.75, -4750.73, -15062.93, 25411.43, -12404.48, -444.11, 0.000, 0.000, 0.000, 15:10:39.732, 1583439039732
82, -4288.16, 1242.73, 12435.35, -4694.76, -15042.99, 25405.86, -12388.88, -459.57, 0.000, 0.000, 0.000, 15:10:39.732, 1583439039732
83, -4345.47, 1246.71, 12357.32, -4676.99, -15059.31, 25411.65, -12385.37, -466.77, 0.000, 0.000, 0.000, 15:10:39.741, 1583439039741
84, -3729.08, 1198.63, 12255.33, -4691.70, -15073.32, 25414.87, -12375.07, -473.70, 0.000, 0.000, 0.000, 15:10:39.741, 1583439039741
85, -3622.19, 1205.56, 12169.09, -4666.44, -15052.31, 25395.92, -12361.77, -474.71, 0.000, 0.000, 0.000, 15:10:39.747, 1583439039747
86, -4226.02, 1272.33, 12079.69, -4602.92, -15040.49, 25390.75, -12367.80, -480.72, 0.108, -0.014, 1.002, 15:10:39.748, 1583439039748
87, -4438.01, 1296.27, 11938.22, -4577.15, -15062.88, 25393.28, -12369.83, -470.71, 0.000, 0.000, 0.000, 15:10:39.755, 1583439039755
88, -3867.05, 1255.39, 11763.95, -4598.16, -15066.86, 25401.15, -12347.71, -474.73, 0.000, 0.000, 0.000, 15:10:39.755, 1583439039755
89, -3608.38, 1244.77, 11618.62, -4608.57, -15045.79, 25401.04, -12333.98, -473.79, 0.000, 0.000, 0.000, 15:10:39.763, 1583439039763
90, -4147.77, 1300.63, 11575.10, -4612.01, -15026.14, 25389.61, -12329.11, -453.16, 0.000, 0.000, 0.000, 15:10:39.763, 1583439039763
91, -4502.74, 1325.28, 11562.13, -4643.93, -15022.76, 25395.76, -12307.34, -457.63, 0.000, 0.000, 0.000, 15:10:39.771, 1583439039771
92, -4027.02, 1287.95, 11494.34, -4664.36, -15023.95, 25415.12, -12282.82, -454.93, 0.000, 0.000, 0.000, 15:10:39.771, 1583439039771
93, -3647.51, 1270.65, 11287.21, -4610.38, -14995.38, 25435.86, -12262.12, -457.99, 0.000, 0.000, 0.000, 15:10:39.777, 1583439039777
94, -4105.30, 1316.12, 10896.68, -4533.09, -14987.29, 25439.77, -12253.94, -457.00, 0.000, 0.000, 0.000, 15:10:39.785, 1583439039785
95, -4587.63, 1351.16, 10424.70, -4492.12, -14979.29, 25462.01, -12237.47, -481.05, 0.000, 0.000, 0.000, 15:10:39.785, 1583439039785
96, -4225.19, 1316.18, 9961.75, -4455.93, -14948.85, 25502.22, -12214.89, -496.10, 0.110, -0.018, 1.002, 15:10:39.793, 1583439039793
97, -3734.06, 1285.09, 9638.00, -4477.86, -14928.98, 25547.24, -12189.34, -514.34, 0.000, 0.000, 0.000, 15:10:39.793, 1583439039793
98, -4077.87, 1335.65, 9527.70, -4468.81, -14896.90, 25575.11, -12179.80, -523.61, 0.000, 0.000, 0.000, 15:10:39.800, 1583439039800
99, -4669.03, 1386.46, 9556.51, -4462.73, -14892.74, 25586.60, -12166.41, -546.25, 0.000, 0.000, 0.000, 15:10:39.800, 1583439039800
100, -4444.69, 1361.13, 9666.75, -4499.12, -14916.17, 25616.30, -12129.20, -576.27, 0.000, 0.000, 0.000, 15:10:39.807, 1583439039807
101, -3851.52, 1319.83, 9805.13, -4542.99, -14857.07, 25647.98, -12090.08, -582.98, 0.000, 0.000, 0.000, 15:10:39.807, 1583439039807
102, -4044.75, 1344.21, 9983.09, -4531.35, -14820.10, 25669.93, -12043.19, -603.65, 0.000, 0.000, 0.000, 15:10:39.815, 1583439039815
103, -4689.78, 1392.96, 10199.06, -4503.16, -14769.09, 25687.41, -11990.93, -635.97, 0.000, 0.000, 0.000, 15:10:39.816, 1583439039816
104, -4599.39, 1375.30, 10391.95, -4516.50, -14764.69, 25703.10, -11918.60, -657.97, 0.000, 0.000, 0.000, 15:10:39.823, 1583439039823
105, -3934.62, 1332.86, 10521.93, -4553.65, -14748.89, 25735.78, -11827.45, -682.33, 0.000, 0.000, 0.000, 15:10:39.823, 1583439039823
106, -3950.92, 1360.98, 10618.00, -4559.51, -14705.59, 25768.81, -11744.66, -712.26, 0.114, -0.016, 1.002, 15:10:39.830, 1583439039830
107, -4602.67, 1430.22, 10711.51, -4525.65, -14695.82, 25781.57, -11668.95, -736.49, 0.000, 0.000, 0.000, 15:10:39.830, 1583439039830
108, -4665.84, 1429.26, 10781.68, -4523.26, -14647.34, 25817.09, -11565.02, -761.61, 0.000, 0.000, 0.000, 15:10:39.837, 1583439039837
109, -3988.49, 1383.01, 10814.35, -4593.22, -14630.18, 25850.08, -11463.76, -760.23, 0.000, 0.000, 0.000, 15:10:39.845, 1583439039845
110, -3826.95, 1394.17, 10843.81, -4625.60, -14618.02, 25860.05, -11372.68, -768.92, 0.000, 0.000, 0.000, 15:10:39.845, 1583439039845
111, -4457.76, 1448.75, 10886.28, -4608.48, -14613.73, 25827.06, -11295.10, -797.13, 0.000, 0.000, 0.000, 15:10:39.853, 1583439039853
112, -4692.57, 1449.04, 10921.20, -4613.29, -14612.70, 25719.08, -11234.59, -802.96, 0.000, 0.000, 0.000, 15:10:39.853, 1583439039853
113, -4053.62, 1400.94, 10921.15, -4655.51, -14571.08, 25709.76, -11135.37, -832.85, 0.000, 0.000, 0.000, 15:10:39.860, 1583439039860
114, -3728.87, 1395.60, 10954.97, -4670.49, -14520.97, 25740.69, -11040.02, -901.83, 0.000, 0.000, 0.000, 15:10:39.860, 1583439039860
115, -4287.89, 1455.93, 11034.63, -4637.03, -14470.65, 25735.57, -10971.73, -923.71, 0.000, 0.000, 0.000, 15:10:39.868, 1583439039868
116, -4675.76, 1481.05, 11103.85, -4612.66, -14453.60, 25728.56, -10935.48, -911.35, 0.110, -0.016, 0.998, 15:10:39.868, 1583439039868
117, -4134.63, 1427.92, 11118.18, -4645.94, -14430.73, 25767.02, -10852.29, -913.94, 0.000, 0.000, 0.000, 15:10:39.876, 1583439039876
118, -3671.30, 1365.00, 11144.45, -4675.54, -14401.70, 25801.20, -10749.51, -941.16, 0.000, 0.000, 0.000, 15:10:39.876, 1583439039876
119, -4124.57, 1374.70, 11221.00, -4659.11, -14399.04, 25802.41, -10680.92, -950.75, 0.000, 0.000, 0.000, 15:10:39.883, 1583439039883
120, -4633.29, 1414.69, 11273.62, -4638.84, -14432.34, 25820.49, -10651.03, -985.29, 0.000, 0.000, 0.000, 15:10:39.883, 1583439039883
121, -4216.08, 1396.98, 11278.22, -4679.47, -14400.80, 25833.41, -10694.79, -969.33, 0.000, 0.000, 0.000, 15:10:39.890, 1583439039890
122, -3623.71, 1372.89, 11284.68, -4731.80, -14365.35, 25872.72, -10696.99, -1025.19, 0.000, 0.000, 0.000, 15:10:39.890, 1583439039890
123, -3935.63, 1421.53, 11315.26, -4731.80, -14342.82, 25878.63, -10716.23, -1019.71, 0.000, 0.000, 0.000, 15:10:39.897, 1583439039897
124, -4540.96, 1473.18, 11359.92, -4706.14, -14345.44, 25833.34, -10731.18, -964.99, 0.000, 0.000, 0.000, 15:10:39.897, 1583439039897
125, -4293.03, 1461.92, 11392.86, -4734.26, -14343.58, 25842.82, -10706.28, -1009.29, 0.000, 0.000, 0.000, 15:10:39.905, 1583439039905
126, -3639.69, 1428.05, 11410.70, -4774.20, -14286.27, 25870.87, -10688.11, -1044.36, 0.108, -0.020, 0.982, 15:10:39.912, 1583439039912
127, -3806.28, 1463.06, 11439.35, -4760.23, -14257.42, 25851.42, -10718.89, -999.64, 0.000, 0.000, 0.000, 15:10:39.912, 1583439039912
128, -4468.31, 1527.90, 11476.06, -4729.34, -14247.47, 25833.52, -10762.79, -995.41, 0.000, 0.000, 0.000, 15:10:39.922, 1583439039922
129, -4397.24, 1514.60, 11475.92, -4769.10, -14212.74, 25847.04, -10783.46, -1007.66, 0.000, 0.000, 0.000, 15:10:39.922, 1583439039922
130, -3726.68, 1462.77, 11461.48, -4773.93, -14210.14, 25825.00, -10810.24, -997.25, 0.000, 0.000, 0.000, 15:10:39.928, 1583439039928
131, -3726.08, 1475.93, 11488.17, -4745.97, -14198.21, 25801.09, -10851.44, -1009.45, 0.000, 0.000, 0.000, 15:10:39.928, 1583439039928
132, -4376.63, 1541.78, 11569.33, -4717.00, -14161.48, 25757.46, -10925.20, -994.29, 0.000, 0.000, 0.000, 15:10:39.936, 1583439039936
133, -4472.38, 1546.74, 11647.65, -4724.58, -14150.82, 25711.95, -10972.18, -1001.51, 0.000, 0.000, 0.000, 15:10:39.936, 1583439039936
134, -3824.47, 1498.62, 11681.58, -4770.04, -14166.31, 25690.33, -11018.49, -1039.96, 0.000, 0.000, 0.000, 15:10:39.943, 1583439039943
135, -3658.47, 1495.26, 11707.42, -4732.58, -14155.25, 25648.09, -11074.10, -1007.39, 0.000, 0.000, 0.000, 15:10:39.943, 1583439039943
136, -4263.42, 1555.32, 11760.75, -4684.46, -14110.03, 25577.10, -11155.93, -978.98, 0.112, -0.022, 0.996, 15:10:39.951, 1583439039951
137, -4515.63, 1568.18, 11825.79, -4665.19, -14097.22, 25556.09, -11307.84, -1002.61, 0.000, 0.000, 0.000, 15:10:39.951, 1583439039951
138, -3928.25, 1516.79, 11867.75, -4690.60, -14124.80, 25535.39, -11407.68, -1024.13, 0.000, 0.000, 0.000, 15:10:39.958, 1583439039958
139, -3609.96, 1513.35, 11917.15, -4704.51, -14111.93, 25494.09, -11456.81, -1005.14, 0.000, 0.000, 0.000, 15:10:39.959, 1583439039959
140, -4122.98, 1563.91, 12023.09, -4642.66, -14072.08, 25430.74, -11522.50, -1002.57, 0.000, 0.000, 0.000, 15:10:39.965, 1583439039965
141, -4505.35, 1600.23, 12130.74, -4632.18, -14073.71, 25396.10, -11586.74, -1029.99, 0.000, 0.000, 0.000, 15:10:39.972, 1583439039972
142, -4016.47, 1565.27, 12173.94, -4669.75, -14075.47, 25386.46, -11680.60, -1039.67, 0.000, 0.000, 0.000, 15:10:39.972, 1583439039972
143, -3555.60, 1543.97, 12259.75, -4697.31, -14071.41, 25372.27, -11803.87, -1021.56, 0.000, 0.000, 0.000, 15:10:39.980, 1583439039980
144, -3947.59, 1595.45, 12384.77, -4676.99, -14057.73, 25343.37, -11860.80, -1042.22, 0.000, 0.000, 0.000, 15:10:39.980, 1583439039980
145, -4422.85, 1629.69, 12485.21, -4641.34, -14072.39, 25320.53, -11924.63, -1057.26, 0.108, -0.020, 0.996, 15:10:39.988, 1583439039988
146, -4044.19, 1587.96, 12544.74, -4658.62, -14068.68, 25313.82, -11981.58, -1084.42, 0.000, 0.000, 0.000, 15:10:39.988, 1583439039988
147, -3475.99, 1545.80, 12580.30, -4691.94, -14087.39, 25300.43, -12014.06, -1105.09, 0.000, 0.000, 0.000, 15:10:39.995, 1583439039995
148, -3732.05, 1569.03, 12621.58, -4677.93, -14103.08, 25268.22, -12062.95, -1128.90, 0.000, 0.000, 0.000, 15:10:39.995, 1583439039995
149, -4294.37, 1613.19, 12677.28, -4640.31, -14104.15, 25248.33, -12104.27, -1139.11, 0.000, 0.000, 0.000, 15:10:40.003, 1583439040003
150, -4076.65, 1584.98, 12710.05, -4647.64, -14118.90, 25243.77, -12130.02, -1151.65, 0.000, 0.000, 0.000, 15:10:40.003, 1583439040003
151, -3446.24, 1526.24, 12714.25, -4691.81, -14157.57, 25242.32, -12136.13, -1163.94, 0.000, 0.000, 0.000, 15:10:40.011, 1583439040011
152, -3571.29, 1544.91, 12744.34, -4655.69, -14149.28, 25232.73, -12162.92, -1178.59, 0.000, 0.000, 0.000, 15:10:40.011, 1583439040011
153, -4183.78, 1593.25, 12794.79, -4616.37, -14151.69, 25204.85, -12178.12, -1197.07, 0.000, 0.000, 0.000, 15:10:40.018, 1583439040018
154, -4136.39, 1583.22, 12805.00, -4637.41, -14171.39, 25192.45, -12188.12, -1211.46, 0.000, 0.000, 0.000, 15:10:40.018, 1583439040018
155, -3490.74, 1522.33, 12791.86, -4657.28, -14215.69, 25192.85, -12180.18, -1222.17, 0.102, -0.020, 1.000, 15:10:40.024, 1583439040024
156, -3468.79, 1538.05, 12803.62, -4660.03, -14237.64, 25189.05, -12203.34, -1234.87, 0.000, 0.000, 0.000, 15:10:40.032, 1583439040032
157, -4093.36, 1595.33, 12838.57, -4617.13, -14246.71, 25186.97, -12220.68, -1255.68, 0.000, 0.000, 0.000, 15:10:40.032, 1583439040032
158, -4211.72, 1596.38, 12862.87, -4620.35, -14269.78, 25183.13, -12227.32, -1250.69, 0.000, 0.000, 0.000, 15:10:40.040, 1583439040040
159, -3584.68, 1540.93, 12860.10, -4665.46, -14308.02, 25188.72, -12206.69, -1251.30, 0.000, 0.000, 0.000, 15:10:40.041, 1583439040041
160, -3390.98, 1534.74, 12877.71, -4683.36, -14332.32, 25191.82, -12162.50, -1252.01, 0.000, 0.000, 0.000, 15:10:40.048, 1583439040048
161, -3973.83, 1588.09, 12940.52, -4655.91, -14329.55, 25178.10, -12098.28, -1261.85, 0.000, 0.000, 0.000, 15:10:40.048, 1583439040048
162, -4246.70, 1599.89, 13013.54, -4650.86, -14352.99, 25160.06, -12013.39, -1251.41, 0.000, 0.000, 0.000, 15:10:40.055, 1583439040055
163, -3670.76, 1549.04, 13080.40, -4698.00, -14386.41, 25156.80, -11856.95, -1253.49, 0.000, 0.000, 0.000, 15:10:40.055, 1583439040055
164, -3330.70, 1528.01, 13167.17, -4711.75, -14412.94, 25162.10, -11763.39, -1281.02, 0.000, 0.000, 0.000, 15:10:40.063, 1583439040063
165, -3855.47, 1570.97, 13299.80, -4665.35, -14419.53, 25160.35, -11755.12, -1313.37, 0.106, -0.020, 1.004, 15:10:40.063, 1583439040063
166, -4283.89, 1599.65, 13442.41, -4656.54, -14396.45, 25136.95, -11754.54, -1314.33, 0.000, 0.000, 0.000, 15:10:40.071, 1583439040071
167, -3823.47, 1556.96, 13544.04, -4695.12, -14375.64, 25110.53, -11789.58, -1278.43, 0.000, 0.000, 0.000, 15:10:40.071, 1583439040071
168, -3355.87, 1526.13, 13631.05, -4727.77, -14379.95, 25115.11, -11943.07, -1307.98, 0.000, 0.000, 0.000, 15:10:40.078, 1583439040078
169, -3767.21, 1565.76, 13737.76, -4707.99, -14362.78, 25108.47, -12183.67, -1368.95, 0.000, 0.000, 0.000, 15:10:40.078, 1583439040078
170, -4299.18, 1607.67, 13849.63, -4687.72, -14353.49, 25083.84, -12427.48, -1370.85, 0.000, 0.000, 0.000, 15:10:40.085, 1583439040085
171, -3951.90, 1571.95, 13932.54, -4716.69, -14372.44, 25065.45, -12647.71, -1309.30, 0.000, 0.000, 0.000, 15:10:40.093, 1583439040093
172, -3373.91, 1530.58, 14002.85, -4743.93, -14392.29, 25126.00, -12834.93, -1285.67, 0.000, 0.000, 0.000, 15:10:40.093, 1583439040093
173, -3647.51, 1561.25, 14101.45, -4722.41, -14381.63, 25123.76, -12940.34, -1235.31, 0.000, 0.000, 0.000, 15:10:40.101, 1583439040101
174, -4271.28, 1617.31, 14235.00, -4697.91, -14393.79, 25039.07, -13006.90, -1159.88, 0.000, 0.000, 0.000, 15:10:40.101, 1583439040101
175, -4088.51, 1598.95, 14353.37, -4720.93, -14395.39, 25023.76, -13115.04, -1170.63, 0.108, -0.018, 1.000, 15:10:40.108, 1583439040108
176, -3452.81, 1552.46, 14428.03, -4761.01, -14426.53, 25033.73, -13234.96, -1094.61, 0.000, 0.000, 0.000, 15:10:40.108, 1583439040108
177, -3576.77, 1574.37, 14507.96, -4761.75, -14429.37, 25035.94, -13204.45, -958.64, 0.000, 0.000, 0.000, 15:10:40.115, 1583439040115
178, -4217.48, 1625.71, 14622.00, -4712.10, -14425.17, 25027.56, -13145.11, -973.22, 0.000, 0.000, 0.000, 15:10:40.116, 1583439040116
179, -4191.89, 1614.65, 14716.16, -4718.05, -14439.36, 25022.89, -13091.91, -958.13, 0.000, 0.000, 0.000, 15:10:40.123, 1583439040123
180, -3537.88, 1566.05, 14780.98, -4769.08, -14443.72, 25012.47, -12999.08, -930.23, 0.000, 0.000, 0.000, 15:10:40.124, 1583439040124
181, -3480.77, 1572.33, 14871.44, -4768.36, -14452.77, 25016.83, -12875.39, -924.07, 0.000, 0.000, 0.000, 15:10:40.130, 1583439040130
182, -4109.77, 1630.29, 14988.27, -4743.78, -14454.58, 25012.81, -12734.95, -923.60, 0.000, 0.000, 0.000, 15:10:40.130, 1583439040130
183, -4252.64, 1641.58, 15103.48, -4759.49, -14460.21, 25010.06, -12604.84, -904.66, 0.000, 0.000, 0.000, 15:10:40.138, 1583439040138
184, -3617.05, 1597.61, 15190.71, -4800.73, -14484.42, 25022.22, -12518.90, -883.03, 0.000, 0.000, 0.000, 15:10:40.138, 1583439040138
185, -3402.47, 1590.28, 15287.21, -4795.99, -14479.01, 25023.00, -12447.42, -848.11, 0.114, -0.018, 1.000, 15:10:40.145, 1583439040145
186, -3988.58, 1645.47, 15401.09, -4767.47, -14475.64, 25014.24, -12372.67, -807.66, 0.000, 0.000, 0.000, 15:10:40.145, 1583439040145
187, -4284.63, 1672.18, 15477.49, -4765.70, -14475.55, 25011.89, -12292.68, -764.63, 0.000, 0.000, 0.000, 15:10:40.153, 1583439040153
188, -3723.00, 1632.57, 15515.98, -4811.53, -14488.27, 25015.04, -12181.75, -723.70, 0.000, 0.000, 0.000, 15:10:40.160, 1583439040160
189, -3356.61, 1616.46, 15550.53, -4826.79, -14484.31, 25012.96, -12066.46, -702.60, 0.000, 0.000, 0.000, 15:10:40.160, 1583439040160
190, -3858.18, 1670.59, 15598.70, -4784.97, -14483.91, 25004.36, -12002.46, -666.37, 0.000, 0.000, 0.000, 15:10:40.168, 1583439040168
191, -4286.04, 1699.60, 15658.16, -4728.22, -14495.55, 25001.34, -11965.47, -636.73, 0.000, 0.000, 0.000, 15:10:40.168, 1583439040168
192, -3833.55, 1660.67, 15685.89, -4763.47, -14524.88, 25013.12, -11952.82, -631.01, 0.000, 0.000, 0.000, 15:10:40.176, 1583439040176
193, -3347.53, 1629.64, 15717.46, -4790.96, -14552.75, 25015.71, -11996.45, -606.38, 0.000, 0.000, 0.000, 15:10:40.176, 1583439040176
194, -3732.07, 1672.85, 15792.51, -4769.93, -14558.29, 25000.85, -12055.90, -557.21, 0.000, 0.000, 0.000, 15:10:40.183, 1583439040183
195, -4266.59, 1714.02, 15867.93, -4722.01, -14568.91, 24985.45, -12092.65, -544.62, 0.118, -0.018, 1.002, 15:10:40.183, 1583439040183
196, -3942.89, 1681.50, 15899.89, -4744.78, -14593.79, 24984.20, -12116.75, -527.39, 0.000, 0.000, 0.000, 15:10:40.190, 1583439040190
197, -3356.83, 1638.20, 15924.52, -4767.43, -14623.67, 24981.76, -12144.31, -487.31, 0.000, 0.000, 0.000, 15:10:40.191, 1583439040191
198, -3593.80, 1671.22, 15973.14, -4749.19, -14649.56, 24971.10, -12222.80, -462.82, 0.000, 0.000, 0.000, 15:10:40.198, 1583439040198
199, -4190.19, 1715.36, 16030.98, -4709.36, -14668.13, 24951.61, -12275.82, -433.96, 0.000, 0.000, 0.000, 15:10:40.199, 1583439040199
200, -4013.26, 1691.62, 16053.36, -4710.83, -14696.58, 24940.68, -12299.43, -400.74, 0.000, 0.000, 0.000, 15:10:40.206, 1583439040206
201, -3371.36, 1649.36, 16053.33, -4735.51, -14736.97, 24941.26, -12332.95, -364.15, 0.000, 0.000, 0.000, 15:10:40.206, 1583439040206
202, -3450.37, 1663.28, 16068.13, -4714.41, -14771.49, 24930.93, -12359.62, -339.75, 0.000, 0.000, 0.000, 15:10:40.212, 1583439040212
203, -4080.91, 1718.22, 16094.98, -4674.67, -14774.37, 24924.63, -12370.37, -317.75, 0.000, 0.000, 0.000, 15:10:40.220, 1583439040220
204, -4076.20, 1720.21, 16112.57, -4682.62, -14796.72, 24929.55, -12354.28, -289.28, 0.114, -0.024, 1.002, 15:10:40.220, 1583439040220
205, -3424.38, 1673.30, 16096.76, -4717.69, -14849.09, 24916.40, -12317.06, -255.03, 0.000, 0.000, 0.000, 15:10:40.228, 1583439040228
206, -3351.15, 1673.10, 16071.26, -4690.02, -14877.57, 24896.18, -12282.71, -221.28, 0.000, 0.000, 0.000, 15:10:40.228, 1583439040228
207, -3985.25, 1725.93, 16060.31, -4635.93, -14880.74, 24907.13, -12266.77, -199.04, 0.000, 0.000, 0.000, 15:10:40.236, 1583439040236
208, -4149.36, 1736.64, 16025.15, -4628.08, -14919.39, 24927.31, -12269.97, -161.89, 0.000, 0.000, 0.000, 15:10:40.236, 1583439040236
209, -3517.67, 1684.29, 15961.33, -4649.63, -14984.99, 24952.03, -12258.93, -130.11, 0.000, 0.000, 0.000, 15:10:40.242, 1583439040242
210, -3269.95, 1682.04, 15922.00, -4650.93, -15049.52, 24965.20, -12226.25, -105.34, 0.000, 0.000, 0.000, 15:10:40.243, 1583439040243
211, -3841.08, 1740.31, 15891.71, -4621.92, -15075.49, 24959.88, -12261.03, -76.20, 0.000, 0.000, 0.000, 15:10:40.251, 1583439040251
212, -4155.84, 1765.59, 15826.58, -4618.85, -15118.32, 24945.75, -12361.07, -37.08, 0.000, 0.000, 0.000, 15:10:40.251, 1583439040251
213, -3591.39, 1717.15, 15695.98, -4657.32, -15183.25, 24943.50, -12586.11, -4.31, 0.000, 0.000, 0.000, 15:10:40.258, 1583439040258
214, -3197.28, 1691.18, 15619.22, -4679.47, -15249.52, 24936.95, -12897.25, 41.42, 0.110, -0.022, 1.004, 15:10:40.259, 1583439040259
215, -3671.70, 1734.58, 15693.47, -4658.26, -15288.39, 24916.07, -13242.85, 110.60, 0.000, 0.000, 0.000, 15:10:40.265, 1583439040265
216, -4110.02, 1763.42, 15835.34, -4656.90, -15334.03, 24901.05, -13640.06, 181.50, 0.000, 0.000, 0.000, 15:10:40.265, 1583439040265
217, -3664.10, 1719.77, 15964.98, -4695.25, -15403.39, 24894.54, -14112.40, 229.28, 0.000, 0.000, 0.000, 15:10:40.272, 1583439040272
218, -3154.97, 1681.59, 16071.89, -4736.16, -15466.65, 24894.34, -14635.12, 281.77, 0.000, 0.000, 0.000, 15:10:40.280, 1583439040280
219, -3509.20, 1708.88, 16137.65, -4702.47, -15507.26, 24873.36, -15207.86, 333.13, 0.000, 0.000, 0.000, 15:10:40.280, 1583439040280
220, -4047.63, 1748.98, 16180.63, -4674.22, -15552.25, 24851.88, -15786.72, 347.70, 0.000, 0.000, 0.000, 15:10:40.288, 1583439040288
221, -3741.30, 1709.73, 16173.30, -4696.91, -15622.89, 24856.88, -16203.23, 334.92, 0.000, 0.000, 0.000, 15:10:40.288, 1583439040288
222, -3144.31, 1659.26, 16111.00, -4728.18, -15697.88, 24863.41, -16602.90, 316.52, 0.000, 0.000, 0.000, 15:10:40.295, 1583439040295
223, -3370.11, 1682.86, 16048.73, -4711.79, -15757.22, 24854.16, -17149.91, 294.64, 0.000, 0.000, 0.000, 15:10:40.295, 1583439040295
224, -3987.98, 1732.22, 15974.19, -4686.51, -15791.02, 24846.89, -17418.49, 257.51, 0.110, -0.018, 1.002, 15:10:40.303, 1583439040303
225, -3842.58, 1708.08, 15814.93, -4700.50, -15850.92, 24861.69, -17518.43, 221.57, 0.000, 0.000, 0.000, 15:10:40.303, 1583439040303
226, -3188.95, 1651.08, 15519.75, -4736.87, -15933.13, 24883.03, -17676.56, 186.30, 0.000, 0.000, 0.000, 15:10:40.311, 1583439040311
227, -3242.32, 1662.17, 15172.72, -4758.71, -15988.43, 24875.03, -17650.14, 140.39, 0.000, 0.000, 0.000, 15:10:40.311, 1583439040311
228, -3861.82, 1712.70, 14808.39, -4749.68, -16021.33, 24866.90, -17630.74, 71.77, 0.000, 0.000, 0.000, 15:10:40.318, 1583439040318
229, -3865.94, 1705.10, 14396.18, -4768.01, -16085.83, 24876.73, -17646.46, 18.64, 0.000, 0.000, 0.000, 15:10:40.318, 1583439040318
230, -3194.47, 1646.97, 13953.90, -4805.20, -16171.53, 24899.91, -17652.00, -15.69, 0.000, 0.000, 0.000, 15:10:40.325, 1583439040325
231, -3082.69, 1641.71, 13516.70, -4793.62, -16232.37, 24895.08, -17685.30, -42.09, 0.000, 0.000, 0.000, 15:10:40.325, 1583439040325
232, -3687.75, 1693.99, 13091.35, -4757.84, -16265.79, 24860.93, -17667.42, -77.27, 0.000, 0.000, 0.000, 15:10:40.333, 1583439040333
233, -3858.74, 1701.77, 12688.68, -4754.35, -16314.87, 24839.63, -17642.25, -105.30, 0.000, 0.000, 0.000, 15:10:40.341, 1583439040341
234, -3218.52, 1644.06, 12320.17, -4765.19, -16385.42, 24832.38, -17610.02, -103.40, 0.110, -0.020, 1.002, 15:10:40.341, 1583439040341
235, -2939.61, 1630.74, 12112.95, -4739.49, -16432.02, 24803.19, -17601.75, -95.11, 0.000, 0.000, 0.000, 15:10:40.348, 1583439040348
236, -3498.14, 1679.51, 12140.37, -4682.85, -16445.21, 24764.03, -17542.79, -110.33, 0.000, 0.000, 0.000, 15:10:40.348, 1583439040348
237, -3842.47, 1699.94, 12320.97, -4651.67, -16449.79, 24748.16, -17470.62, -125.59, 0.000, 0.000, 0.000, 15:10:40.355, 1583439040355
238, -3307.19, 1648.66, 12554.95, -4657.03, -16461.43, 24743.83, -17310.73, -132.43, 0.000, 0.000, 0.000, 15:10:40.355, 1583439040355
239, -2895.29, 1634.81, 12796.26, -4644.36, -16489.08, 24729.48, -17180.87, -109.10, 0.000, 0.000, 0.000, 15:10:40.363, 1583439040363
240, -3362.71, 1683.96, 13057.29, -4575.83, -16493.98, 24701.85, -17187.53, -97.16, 0.000, 0.000, 0.000, 15:10:40.363, 1583439040363
241, -3831.85, 1725.82, 13308.09, -4528.60, -16501.26, 24679.81, -17134.31, -89.65, 0.000, 0.000, 0.000, 15:10:40.370, 1583439040370
242, -3409.76, 1686.42, 13514.96, -4531.03, -16517.45, 24675.54, -17047.52, -50.69, 0.000, 0.000, 0.000, 15:10:40.370, 1583439040370
243, -2884.69, 1649.20, 13717.20, -4542.92, -16507.86, 24680.55, -16954.87, -8.14, 0.000, 0.000, 0.000, 15:10:40.378, 1583439040378
244, -3244.24, 1684.27, 13955.20, -4498.80, -16512.60, 24670.13, -16811.17, 4.65, 0.112, -0.022, 1.002, 15:10:40.378, 1583439040378
245, -3808.16, 1692.74, 14211.71, -4405.44, -16501.42, 24664.43, -16657.57, 11.60, 0.000, 0.000, 0.000, 15:10:40.386, 1583439040386
246, -3538.88, 1634.02, 14408.09, -4427.32, -16502.43, 24696.24, -16501.94, 19.51, 0.000, 0.000, 0.000, 15:10:40.386, 1583439040386
247, -2939.39, 1557.34, 14531.90, -4453.85, -16526.01, 24714.70, -16366.51, 21.82, 0.000, 0.000, 0.000, 15:10:40.393, 1583439040393
248, -3155.49, 1561.00, 14653.78, -4422.27, -16508.08, 24691.66, -16188.79, 60.33, 0.000, 0.000, 0.000, 15:10:40.393, 1583439040393
249, -3787.53, 1594.24, 14786.13, -4377.83, -16485.89, 24692.84, -15978.43, 54.74, 0.000, 0.000, 0.000, 15:10:40.400, 1583439040400
250, -3678.54, 1552.69, 14877.90, -4365.65, -16497.62, 24684.97, -15553.84, 55.43, 0.000, 0.000, 0.000, 15:10:40.407, 1583439040407
251, -3031.28, 1460.08, 14928.71, -4386.86, -16514.41, 24670.74, -14948.44, 67.37, 0.000, 0.000, 0.000, 15:10:40.407, 1583439040407
252, -3075.18, 1437.13, 14995.58, -4381.81, -16518.65, 24667.41, -14727.61, 56.51, 0.000, 0.000, 0.000, 15:10:40.416, 1583439040416
253, -3720.69, 1458.97, 15078.96, -4362.19, -16497.46, 24677.80, -14668.13, 40.95, 0.000, 0.000, 0.000, 15:10:40.416, 1583439040416
254, -3774.40, 1402.10, 15144.89, -4351.26, -16489.87, 24688.53, -14530.85, 40.86, 0.110, -0.018, 1.000, 15:10:40.423, 1583439040423
255, -3128.22, 1279.84, 15178.87, -4370.35, -16505.06, 24694.97, -14397.70, 29.44, 0.000, 0.000, 0.000, 15:10:40.423, 1583439040423
0, -3013.33, 1235.43, 15222.39, -4375.35, -16488.01, 24691.05, -14321.16, 16.83, 0.000, 0.000, 0.000, 15:10:40.430, 1583439040430
1, -3639.22, 1268.19, 15286.04, -4357.43, -16456.72, 24702.30, -14298.59, 4.83, 0.000, 0.000, 0.000, 15:10:40.430, 1583439040430
2, -3858.72, 1245.84, 15331.37, -4374.44, -16431.82, 24720.98, -14286.21, -21.19, 0.000, 0.000, 0.000, 15:10:40.438, 1583439040438
3, -3260.61, 1144.30, 15346.30, -4427.17, -16424.15, 24752.90, -14207.46, -45.91, 0.000, 0.000, 0.000, 15:10:40.438, 1583439040438
4, -2986.51, 1081.33, 15363.69, -4441.16, -16409.51, 24767.63, -14087.05, -70.56, 0.000, 0.000, 0.000, 15:10:40.446, 1583439040446
5, -3549.03, 1110.23, 15404.78, -4425.44, -16371.94, 24756.77, -14002.72, -88.11, 0.000, 0.000, 0.000, 15:10:40.446, 1583439040446
6, -3914.91, 1104.76, 15438.37, -4435.08, -16349.23, 24756.41, -13939.91, -116.81, 0.000, 0.000, 0.000, 15:10:40.453, 1583439040453
7, -3407.05, 1006.79, 15439.89, -4484.36, -16348.83, 24767.61, -13899.21, -128.57, 0.000, 0.000, 0.000, 15:10:40.453, 1583439040453
8, -2999.02, 930.28, 15433.14, -4519.28, -16344.02, 24778.94, -13860.67, -137.80, 0.110, -0.018, 0.996, 15:10:40.460, 1583439040460
9, -3466.76, 955.45, 15443.18, -4526.00, -16313.06, 24781.69, -13809.94, -144.30, 0.000, 0.000, 0.000, 15:10:40.468, 1583439040468
10, -3959.37, 982.00, 15445.81, -4540.62, -16286.84, 24785.92, -13756.38, -154.94, 0.000, 0.000, 0.000, 15:10:40.468, 1583439040468
11, -3570.80, 904.89, 15411.26, -4595.94, -16285.97, 24802.86, -13703.63, -168.40, 0.000, 0.000, 0.000, 15:10:40.476, 1583439040476
12, -3047.17, 822.95, 15361.86, -4640.65, -16292.79, 24816.76, -13663.75, -172.24, 0.000, 0.000, 0.000, 15:10:40.476, 1583439040476
13, -3385.57, 850.06, 15329.85, -4646.97, -16264.38, 24825.68, -13635.17, -180.54, 0.000, 0.000, 0.000, 15:10:40.483, 1583439040483
14, -3966.07, 893.38, 15301.78, -4644.49, -16233.89, 24828.56, -13605.86, -191.02, 0.000, 0.000, 0.000, 15:10:40.483, 1583439040483
15, -3717.14, 843.26, 15247.31, -4679.92, -16229.29, 24831.09, -13561.72, -199.87, 0.000, 0.000, 0.000, 15:10:40.490, 1583439040490
16, -3113.80, 767.09, 15183.47, -4720.04, -16232.73, 24853.89, -13511.50, -221.42, 0.000, 0.000, 0.000, 15:10:40.490, 1583439040490
17, -3302.34, 783.74, 15155.02, -4710.54, -16212.52, 24862.92, -13479.15, -238.54, 0.116, -0.020, 1.006, 15:10:40.498, 1583439040498
18, -3937.80, 844.87, 15150.19, -4684.50, -16180.47, 24868.82, -13458.23, -255.26, 0.000, 0.000, 0.000, 15:10:40.498, 1583439040498
19, -3851.07, 817.00, 15125.20, -4694.22, -16165.05, 24875.21, -13419.90, -287.44, 0.000, 0.000, 0.000, 15:10:40.506, 1583439040506
20, -3208.64, 738.19, 15083.25, -4721.00, -16174.12, 24889.25, -13389.59, -291.51, 0.000, 0.000, 0.000, 15:10:40.506, 1583439040506
21, -3234.23, 741.16, 15061.63, -4723.37, -16164.38, 24900.74, -13368.73, -291.56, 0.000, 0.000, 0.000, 15:10:40.513, 1583439040513
22, -3879.46, 804.64, 15060.90, -4695.48, -16135.28, 24902.01, -13350.92, -310.53, 0.000, 0.000, 0.000, 15:10:40.513, 1583439040513
23, -3959.39, 801.44, 15038.23, -4705.51, -16121.64, 24910.79, -13322.56, -336.86, 0.000, 0.000, 0.000, 15:10:40.520, 1583439040520
24, -3314.67, 735.28, 14985.95, -4750.64, -16126.83, 24925.37, -13300.65, -351.17, 0.000, 0.000, 0.000, 15:10:40.529, 1583439040529
25, -3171.31, 743.87, 14952.83, -4759.40, -16118.00, 24935.90, -13293.92, -354.19, 0.000, 0.000, 0.000, 15:10:40.529, 1583439040529
26, -3787.28, 832.76, 14969.28, -4731.31, -16088.58, 24940.77, -13286.86, -368.00, 0.000, 0.000, 0.000, 15:10:40.535, 1583439040535
27, -4023.81, 876.97, 14966.33, -4733.90, -16068.60, 24952.06, -13267.91, -390.62, 0.114, -0.020, 1.006, 15:10:40.535, 1583439040535
28, -3424.11, 838.15, 14911.36, -4777.35, -16086.71, 24965.51, -13256.39, -398.78, 0.000, 0.000, 0.000, 15:10:40.543, 1583439040543
29, -3115.16, 845.68, 14864.67, -4792.46, -16088.85, 24971.59, -13250.58, -391.65, 0.000, 0.000, 0.000, 15:10:40.543, 1583439040543
30, -3660.08, 942.13, 14858.90, -4762.42, -16068.22, 24969.63, -13242.98, -405.48, 0.000, 0.000, 0.000, 15:10:40.551, 1583439040551
31, -4036.55, 1014.55, 14884.23, -4749.39, -16060.49, 24971.32, -13235.12, -414.42, 0.000, 0.000, 0.000, 15:10:40.551, 1583439040551
32, -3515.01, 1001.94, 14896.81, -4779.05, -16074.03, 24977.60, -13216.07, -418.04, 0.000, 0.000, 0.000, 15:10:40.559, 1583439040559
33, -3057.70, 1016.18, 14856.49, -4793.11, -16088.00, 24984.98, -13202.82, -421.76, 0.000, 0.000, 0.000, 15:10:40.559, 1583439040559
34, -3483.88, 1124.40, 14834.23, -4756.97, -16083.44, 24981.18, -13199.33, -434.99, 0.000, 0.000, 0.000, 15:10:40.565, 1583439040565
35, -3965.47, 1223.85, 14822.51, -4726.14, -16091.69, 24977.52, -13195.17, -446.27, 0.000, 0.000, 0.000, 15:10:40.565, 1583439040565
36, -3561.04, 1223.71, 14780.29, -4742.79, -16113.75, 24980.93, -13177.31, -454.43, 0.000, 0.000, 0.000, 15:10:40.573, 1583439040573
37, -2990.64, 1217.28, 14733.06, -4758.08, -16141.80, 24986.32, -13160.26, -449.87, 0.112, -0.016, 1.002, 15:10:40.573, 1583439040573
38, -3284.83, 1294.90, 14713.79, -4710.45, -16147.88, 24979.79, -13159.79, -428.77, 0.000, 0.000, 0.000, 15:10:40.580, 1583439040580
39, -3850.91, 1374.39, 14709.15, -4643.93, -16150.48, 24970.83, -13159.57, -406.56, 0.000, 0.000, 0.000, 15:10:40.588, 1583439040588
40, -3592.93, 1371.08, 14711.90, -4641.47, -16176.58, 24973.76, -13149.62, -382.53, 0.000, 0.000, 0.000, 15:10:40.589, 1583439040589
41, -2946.50, 1339.72, 14728.64, -4655.24, -16215.72, 24975.82, -13144.55, -337.78, 0.000, 0.000, 0.000, 15:10:40.595, 1583439040595
42, -3081.88, 1383.91, 14712.32, -4582.55, -16233.60, 24964.91, -13153.87, -294.31, 0.000, 0.000, 0.000, 15:10:40.595, 1583439040595
43, -3683.57, 1472.24, 14674.68, -4530.97, -16251.91, 24950.31, -13165.36, -269.83, 0.000, 0.000, 0.000, 15:10:40.603, 1583439040603
44, -3584.66, 1487.91, 14625.44, -4524.02, -16286.91, 24947.85, -13165.33, -251.37, 0.000, 0.000, 0.000, 15:10:40.603, 1583439040603
45, -2912.19, 1450.99, 14556.42, -4528.15, -16324.84, 24967.81, -13159.88, -221.48, 0.000, 0.000, 0.000, 15:10:40.611, 1583439040611
46, -2896.58, 1485.14, 14507.02, -4472.70, -16347.22, 24953.58, -13166.21, -193.21, 0.000, 0.000, 0.000, 15:10:40.611, 1583439040611
47, -3523.44, 1565.09, 14478.48, -4401.15, -16354.26, 24909.52, -13184.87, -164.11, 0.114, -0.018, 1.002, 15:10:40.618, 1583439040618
48, -3614.25, 1585.88, 14430.11, -4387.38, -16371.04, 24900.98, -13191.71, -155.48, 0.000, 0.000, 0.000, 15:10:40.618, 1583439040618
49, -2985.84, 1539.54, 14356.88, -4377.05, -16394.78, 24877.20, -13184.62, -151.59, 0.000, 0.000, 0.000, 15:10:40.625, 1583439040625
50, -2830.36, 1549.65, 14301.29, -4331.75, -16405.31, 24854.09, -13185.61, -141.06, 0.000, 0.000, 0.000, 15:10:40.626, 1583439040626
51, -3433.38, 1626.22, 14275.79, -4276.13, -16405.22, 24829.32, -13186.12, -121.91, 0.000, 0.000, 0.000, 15:10:40.634, 1583439040634
52, -3689.92, 1657.18, 14248.34, -4269.88, -16410.11, 24814.59, -13142.98, -109.08, 0.000, 0.000, 0.000, 15:10:40.634, 1583439040634
53, -3128.86, 1602.46, 14232.52, -4290.75, -16417.02, 24815.00, -13076.46, -78.83, 0.000, 0.000, 0.000, 15:10:40.641, 1583439040641
54, -2832.90, 1596.61, 14257.95, -4257.94, -16414.92, 24811.29, -13015.80, -61.62, 0.000, 0.000, 0.000, 15:10:40.641, 1583439040641
55, -3366.06, 1666.70, 14291.39, -4214.31, -16404.21, 24799.06, -12986.01, -46.85, 0.000, 0.000, 0.000, 15:10:40.648, 1583439040648
56, -3757.10, 1704.23, 14310.79, -4194.46, -16397.98, 24796.44, -12965.15, -38.42, 0.000, 0.000, 0.000, 15:10:40.655, 1583439040655
57, -3289.42, 1662.30, 14304.51, -4203.49, -16398.45, 24812.78, -12941.75, -27.11, 0.112, -0.016, 1.004, 15:10:40.656, 1583439040656
58, -2873.52, 1632.48, 14304.04, -4199.69, -16383.87, 24830.37, -12924.05, -16.70, 0.000, 0.000, 0.000, 15:10:40.663, 1583439040663
59, -3303.39, 1687.44, 14328.72, -4155.03, -16362.91, 24836.07, -12921.19, -11.33, 0.000, 0.000, 0.000, 15:10:40.663, 1583439040663
60, -3803.10, 1737.38, 14356.17, -4129.26, -16339.39, 24838.06, -12910.32, -7.76, 0.000, 0.000, 0.000, 15:10:40.671, 1583439040671
61, -3466.29, 1707.03, 14357.44, -4157.89, -16331.03, 24860.93, -12889.85, 8.65, 0.000, 0.000, 0.000, 15:10:40.671, 1583439040671
62, -2953.56, 1672.56, 14349.10, -4186.57, -16322.72, 24879.14, -12870.33, 20.50, 0.000, 0.000, 0.000, 15:10:40.678, 1583439040678
63, -3249.65, 1719.05, 14362.54, -4175.28, -16281.73, 24896.31, -12856.52, 10.64, 0.000, 0.000, 0.000, 15:10:40.678, 1583439040678
64, -3818.55, 1780.47, 14383.88, -4164.29, -16261.88, 24902.75, -12853.71, 17.19, 0.000, 0.000, 0.000, 15:10:40.686, 1583439040686
65, -3622.95, 1752.26, 14382.30, -4179.89, -16255.82, 24880.91, -12847.38, 24.07, 0.000, 0.000, 0.000, 15:10:40.686, 1583439040686
66, -3043.64, 1698.82, 14363.63, -4223.88, -16240.91, 24880.35, -12832.05, 21.19, 0.000, 0.000, 0.000, 15:10:40.694, 1583439040694
67, -3186.00, 1722.34, 14366.70, -4221.86, -16223.10, 24894.21, -12830.59, 4.14, 0.106, -0.014, 0.996, 15:10:40.694, 1583439040694
68, -3793.45, 1789.30, 14390.05, -4179.87, -16190.69, 24898.63, -12853.37, -1.10, 0.000, 0.000, 0.000, 15:10:40.700, 1583439040700
69, -3755.96, 1781.81, 14392.91, -4177.74, -16190.13, 24899.39, -12868.14, -3.15, 0.000, 0.000, 0.000, 15:10:40.700, 1583439040700
70, -3163.35, 1730.58, 14376.15, -4199.92, -16177.23, 24916.65, -12864.08, -10.64, 0.000, 0.000, 0.000, 15:10:40.707, 1583439040707
71, -3160.80, 1746.48, 14374.76, -4223.23, -16146.94, 24931.87, -12872.97, -20.07, 0.000, 0.000, 0.000, 15:10:40.715, 1583439040715
72, -3762.11, 1810.04, 14390.59, -4199.36, -16108.43, 24941.89, -12874.94, -51.65, 0.000, 0.000, 0.000, 15:10:40.715, 1583439040715
73, -3878.77, 1814.16, 14396.00, -4195.02, -16098.78, 24954.56, -12857.77, -70.41, 0.000, 0.000, 0.000, 15:10:40.724, 1583439040724
74, -3297.31, 1758.05, 14380.64, -4228.44, -16076.56, 24984.64, -12844.92, -83.17, 0.000, 0.000, 0.000, 15:10:40.724, 1583439040724
75, -3137.74, 1753.34, 14369.47, -4212.14, -16074.39, 25024.19, -12826.55, -102.84, 0.000, 0.000, 0.000, 15:10:40.730, 1583439040730
76, -3697.36, 1813.02, 14380.75, -4180.92, -16044.55, 25046.22, -12810.14, -129.57, 0.112, -0.012, 1.002, 15:10:40.730, 1583439040730
77, -3958.70, 1833.36, 14386.25, -4176.92, -16032.06, 25049.85, -12783.12, -157.62, 0.000, 0.000, 0.000, 15:10:40.738, 1583439040738
78, -3427.44, 1780.72, 14365.09, -4210.44, -16025.66, 25053.91, -12763.49, -168.42, 0.000, 0.000, 0.000, 15:10:40.739, 1583439040739
79, -3116.82, 1758.95, 14346.44, -4224.35, -16012.39, 25058.23, -12752.45, -184.74, 0.000, 0.000, 0.000, 15:10:40.746, 1583439040746
80, -3613.07, 1810.98, 14351.72, -4208.32, -15970.01, 25072.58, -12755.00, -213.26, 0.000, 0.000, 0.000, 15:10:40.746, 1583439040746
81, -4009.10, 1843.30, 14358.78, -4206.78, -15955.34, 25076.11, -12755.72, -243.43, 0.000, 0.000, 0.000, 15:10:40.753, 1583439040753
82, -3561.57, 1798.82, 14340.86, -4248.80, -15962.63, 25071.39, -12735.89, -274.03, 0.000, 0.000, 0.000, 15:10:40.753, 1583439040753
83, -3127.25, 1770.10, 14319.29, -4279.24, -15927.92, 25062.09, -12726.21, -292.72, 0.000, 0.000, 0.000, 15:10:40.761, 1583439040761
84, -3524.09, 1818.52, 14322.46, -4269.45, -15896.14, 25060.10, -12736.43, -296.74, 0.000, 0.000, 0.000, 15:10:40.761, 1583439040761
85, -4019.34, 1863.31, 14329.66, -4275.31, -15881.79, 25055.50, -12735.51, -299.11, 0.000, 0.000, 0.000, 15:10:40.768, 1583439040768
86, -3691.93, 1824.86, 14311.13, -4293.12, -15879.17, 25052.01, -12713.78, -305.91, 0.106, -0.018, 1.006, 15:10:40.776, 1583439040776
87, -3155.04, 1789.68, 14285.18, -4339.30, -15853.24, 25065.16, -12699.68, -302.55, 0.000, 0.000, 0.000, 15:10:40.776, 1583439040776
88, -3416.15, 1824.84, 14282.67, -4333.82, -15828.70, 25053.87, -12701.22, -301.61, 0.000, 0.000, 0.000, 15:10:40.783, 1583439040783
89, -3985.29, 1875.51, 14289.72, -4328.17, -15792.13, 25036.66, -12703.43, -316.59, 0.000, 0.000, 0.000, 15:10:40.783, 1583439040783
90, -3802.23, 1850.86, 14275.86, -4365.54, -15765.31, 25033.91, -12702.85, -318.76, 0.000, 0.000, 0.000, 15:10:40.790, 1583439040790
91, -3196.39, 1801.13, 14245.50, -4414.36, -15765.56, 25043.12, -12691.07, -328.41, 0.000, 0.000, 0.000, 15:10:40.790, 1583439040790
92, -3308.59, 1828.35, 14236.29, -4419.03, -15753.00, 25041.93, -12692.15, -341.02, 0.000, 0.000, 0.000, 15:10:40.798, 1583439040798
93, -3915.42, 1893.22, 14247.20, -4412.86, -15757.33, 25022.87, -12712.44, -343.05, 0.000, 0.000, 0.000, 15:10:40.798, 1583439040798
94, -3886.34, 1889.19, 14241.64, -4446.75, -15767.17, 25006.28, -12711.17, -361.74, 0.000, 0.000, 0.000, 15:10:40.806, 1583439040806
95, -3257.90, 1839.46, 14218.41, -4512.86, -15776.87, 25011.71, -12706.27, -364.91, 0.000, 0.000, 0.000, 15:10:40.806, 1583439040806
96, -3206.94, 1846.72, 14212.74, -4530.16, -15778.57, 25002.46, -12710.86, -371.28, 0.106, -0.022, 1.000, 15:10:40.813, 1583439040813
97, -3806.75, 1906.80, 14230.77, -4518.83, -15772.20, 24985.85, -12713.45, -378.30, 0.000, 0.000, 0.000, 15:10:40.813, 1583439040813
98, -3930.98, 1918.76, 14235.60, -4551.19, -15791.86, 24969.09, -12709.54, -380.31, 0.000, 0.000, 0.000, 15:10:40.821, 1583439040821
99, -3315.12, 1863.60, 14214.88, -4601.69, -15793.70, 24969.13, -12703.50, -377.50, 0.000, 0.000, 0.000, 15:10:40.821, 1583439040821
100, -3113.62, 1855.31, 14205.45, -4624.67, -15784.85, 24963.90, -12697.85, -378.06, 0.000, 0.000, 0.000, 15:10:40.828, 1583439040828
101, -3677.91, 1918.29, 14217.83, -4620.60, -15780.98, 24945.13, -12699.99, -386.48, 0.000, 0.000, 0.000, 15:10:40.835, 1583439040835
102, -3963.55, 1944.98, 14217.56, -4634.16, -15783.08, 24935.31, -12700.13, -391.85, 0.000, 0.000, 0.000, 15:10:40.835, 1583439040835
103, -3418.12, 1894.29, 14191.12, -4677.53, -15774.72, 24937.82, -12697.89, -388.34, 0.000, 0.000, 0.000, 15:10:40.842, 1583439040842
104, -3075.40, 1881.64, 14165.02, -4712.75, -15766.00, 24937.08, -12701.42, -379.78, 0.000, 0.000, 0.000, 15:10:40.843, 1583439040843
105, -3568.12, 1935.71, 14159.36, -4716.75, -15766.34, 24918.69, -12713.09, -377.07, 0.000, 0.000, 0.000, 15:10:40.851, 1583439040851
106, -3985.74, 1970.66, 14148.83, -4748.92, -15767.86, 24905.77, -12721.47, -383.89, 0.108, -0.020, 0.996, 15:10:40.851, 1583439040851
107, -3535.98, 1928.24, 14106.83, -4801.83, -15757.64, 24907.17, -12719.44, -380.83, 0.000, 0.000, 0.000, 15:10:40.859, 1583439040859
108, -3059.73, 1893.22, 14065.53, -4840.69, -15747.25, 24902.77, -12715.26, -369.74, 0.000, 0.000, 0.000, 15:10:40.859, 1583439040859
109, -3440.02, 1941.41, 14076.08, -4833.83, -15747.54, 24884.93, -12713.43, -364.58, 0.000, 0.000, 0.000, 15:10:40.866, 1583439040866
110, -3957.24, 1980.63, 14123.11, -4807.68, -15741.98, 24868.19, -12709.83, -366.50, 0.000, 0.000, 0.000, 15:10:40.866, 1583439040866
111, -3636.72, 1946.48, 14120.29, -4826.90, -15733.53, 24867.61, -12691.14, -362.05, 0.000, 0.000, 0.000, 15:10:40.873, 1583439040873
112, -3063.55, 1895.11, 14062.82, -4860.70, -15722.35, 24869.11, -12672.61, -352.31, 0.000, 0.000, 0.000, 15:10:40.873, 1583439040873
113, -3305.17, 1910.52, 14026.41, -4857.41, -15710.19, 24858.45, -12671.02, -342.59, 0.000, 0.000, 0.000, 15:10:40.881, 1583439040881
114, -3894.72, 1968.43, 14007.08, -4818.07, -15692.27, 24847.05, -12669.77, -346.50, 0.000, 0.000, 0.000, 15:10:40.881, 1583439040881
115, -3724.38, 1947.60, 13959.18, -4824.31, -15680.75, 24851.52, -12659.09, -340.39, 0.000, 0.000, 0.000, 15:10:40.888, 1583439040888
116, -3093.28, 1894.00, 13929.99, -4850.42, -15662.36, 24855.81, -12648.14, -327.72, 0.106, -0.018, 0.992, 15:10:40.888, 1583439040888
117, -3181.01, 1918.09, 13945.30, -4842.89, -15649.98, 24853.53, -12640.72, -327.12, 0.000, 0.000, 0.000, 15:10:40.895, 1583439040895
118, -3807.17, 1983.20, 13982.45, -4801.42, -15641.68, 24845.04, -12639.51, -329.82, 0.000, 0.000, 0.000, 15:10:40.903, 1583439040903
119, -3806.08, 1982.47, 13975.63, -4782.89, -15629.26, 24850.24, -12640.27, -328.32, 0.000, 0.000, 0.000, 15:10:40.903, 1583439040903
120, -3169.12, 1928.80, 13895.10, -4809.02, -15610.73, 24865.67, -12628.76, -333.09, 0.000, 0.000, 0.000, 15:10:40.911, 1583439040911
121, -3107.21, 1942.21, 13819.26, -4801.00, -15586.30, 24867.39, -12618.61, -339.17, 0.000, 0.000, 0.000, 15:10:40.911, 1583439040911
122, -3729.48, 2004.91, 13794.20, -4756.00, -15561.89, 24862.27, -12604.39, -348.33, 0.000, 0.000, 0.000, 15:10:40.918, 1583439040918
123, -3899.91, 2014.67, 13744.83, -4745.92, -15544.94, 24864.55, -12571.31, -348.06, 0.000, 0.000, 0.000, 15:10:40.918, 1583439040918
124, -3293.44, 1962.66, 13671.24, -4777.89, -15537.12, 24873.47, -12528.11, -337.98, 0.000, 0.000, 0.000, 15:10:40.925, 1583439040925
125, -3078.86, 1958.19, 13650.50, -4777.22, -15504.35, 24876.80, -12490.87, -331.12, 0.000, 0.000, 0.000, 15:10:40.926, 1583439040926
126, -3655.00, 2010.34, 13673.10, -4736.87, -15480.13, 24867.28, -12466.26, -320.95, 0.106, -0.016, 0.996, 15:10:40.933, 1583439040933
127, -3971.86, 2036.49, 13698.47, -4715.88, -15461.13, 24859.30, -12439.15, -307.45, 0.000, 0.000, 0.000, 15:10:40.934, 1583439040934
128, -3443.17, 1986.42, 13704.75, -4741.12, -15439.78, 24859.45, -12407.36, -294.08, 0.000, 0.000, 0.000, 15:10:40.941, 1583439040941
129, -3089.91, 1965.08, 13702.25, -4753.57, -15428.65, 24857.40, -12386.11, -279.89, 0.000, 0.000, 0.000, 15:10:40.942, 1583439040942
130, -3571.27, 2022.79, 13701.53, -4718.88, -15406.81, 24846.64, -12376.74, -277.74, 0.000, 0.000, 0.000, 15:10:40.948, 1583439040948
131, -4014.75, 2053.79, 13691.61, -4676.90, -15390.18, 24838.60, -12365.86, -287.04, 0.000, 0.000, 0.000, 15:10:40.948, 1583439040948
132, -3608.73, 2008.93, 13669.03, -4701.04, -15376.12, 24839.74, -12347.59, -277.52, 0.000, 0.000, 0.000, 15:10:40.955, 1583439040955
133, -3147.37, 1981.26, 13621.40, -4724.04, -15364.23, 24838.91, -12338.32, -257.74, 0.000, 0.000, 0.000, 15:10:40.963, 1583439040963
134, -3524.49, 2016.57, 13618.43, -4681.48, -15348.45, 24825.03, -12345.34, -252.53, 0.000, 0.000, 0.000, 15:10:40.963, 1583439040963
135, -4070.50, 2056.41, 13629.56, -4650.24, -15331.02, 24820.16, -12343.79, -263.26, 0.000, 0.000, 0.000, 15:10:40.970, 1583439040970
136, -3802.95, 2026.28, 13612.01, -4683.32, -15321.67, 24829.84, -12339.64, -258.52, 0.108, -0.018, 0.998, 15:10:40.970, 1583439040970
137, -3266.39, 1979.87, 13590.22, -4701.49, -15307.06, 24843.54, -12336.53, -254.50, 0.000, 0.000, 0.000, 15:10:40.978, 1583439040978
138, -3507.91, 2010.14, 13584.90, -4687.32, -15289.62, 24845.04, -12339.82, -261.92, 0.000, 0.000, 0.000, 15:10:40.978, 1583439040978
139, -4101.79, 2069.24, 13595.43, -4677.44, -15288.73, 24841.79, -12349.14, -277.70, 0.000, 0.000, 0.000, 15:10:40.986, 1583439040986
140, -3984.00, 2047.29, 13585.17, -4693.67, -15296.17, 24846.76, -12360.94, -278.03, 0.000, 0.000, 0.000, 15:10:40.986, 1583439040986
141, -3403.79, 1992.57, 13585.19, -4704.82, -15283.38, 24847.05, -12373.86, -280.04, 0.000, 0.000, 0.000, 15:10:40.994, 1583439040994
142, -3496.71, 2009.78, 13611.90, -4687.18, -15274.94, 24845.42, -12388.66, -294.95, 0.000, 0.000, 0.000, 15:10:40.994, 1583439040994
143, -4118.02, 2067.31, 13650.41, -4650.30, -15265.82, 24849.73, -12404.99, -315.45, 0.000, 0.000, 0.000, 15:10:41.000, 1583439041000
144, -4160.93, 2061.21, 13669.03, -4655.26, -15261.26, 24865.73, -12420.46, -315.38, 0.000, 0.000, 0.000, 15:10:41.000, 1583439041000
145, -3572.19, 2014.03, 13672.79, -4713.51, -15237.09, 24882.18, -12425.76, -302.22, 0.106, -0.014, 1.002, 15:10:41.009, 1583439041009
146, -3501.49, 2015.32, 13703.94, -4687.88, -15190.65, 24890.03, -12425.60, -293.41, 0.000, 0.000, 0.000, 15:10:41.009, 1583439041009
147, -4114.82, 2066.26, 13752.29, -4649.39, -15143.73, 24888.69, -12437.99, -289.21, 0.000, 0.000, 0.000, 15:10:41.016, 1583439041016
148, -4324.64, 2075.94, 13786.58, -4645.39, -15097.66, 24898.37, -12447.17, -289.86, 0.000, 0.000, 0.000, 15:10:41.024, 1583439041024
149, -3778.12, 2031.95, 13793.17, -4705.29, -15058.77, 24921.17, -12451.84, -295.71, 0.000, 0.000, 0.000, 15:10:41.024, 1583439041024
150, -3566.62, 2015.66, 13803.90, -4702.90, -15032.02, 24938.71, -12464.45, -306.80, 0.000, 0.000, 0.000, 15:10:41.030, 1583439041030
151, -4099.73, 2042.73, 13833.85, -4641.09, -15021.47, 24946.58, -12489.37, -323.18, 0.000, 0.000, 0.000, 15:10:41.030, 1583439041030
152, -4414.98, 2065.46, 13842.81, -4652.90, -15037.05, 24944.32, -12513.85, -339.55, 0.000, 0.000, 0.000, 15:10:41.038, 1583439041038
153, -3906.68, 2007.21, 13802.13, -4644.16, -15064.90, 24952.48, -12516.80, -357.23, 0.000, 0.000, 0.000, 15:10:41.038, 1583439041038
154, -3518.05, 1918.20, 13763.67, -4598.98, -15094.42, 24961.71, -12520.66, -358.14, 0.000, 0.000, 0.000, 15:10:41.046, 1583439041046
155, -3966.81, 1957.01, 13769.28, -4527.17, -15116.28, 24957.58, -12534.72, -360.44, 0.102, -0.012, 1.000, 15:10:41.046, 1583439041046
156, -4394.55, 1962.97, 13756.31, -4482.40, -15130.32, 24956.79, -12542.88, -373.34, 0.000, 0.000, 0.000, 15:10:41.053, 1583439041053
157, -3984.58, 1890.69, 13703.03, -4506.33, -15147.24, 24975.08, -12531.77, -393.39, 0.000, 0.000, 0.000, 15:10:41.053, 1583439041053
158, -3490.43, 1831.43, 13648.53, -4500.90, -15165.97, 24983.46, -12540.54, -392.47, 0.000, 0.000, 0.000, 15:10:41.061, 1583439041061
159, -3821.61, 1851.10, 13613.96, -4449.99, -15170.51, 24993.43, -12542.68, -413.22, 0.000, 0.000, 0.000, 15:10:41.061, 1583439041061
160, -4345.16, 1879.29, 13582.82, -4439.10, -15177.62, 24991.93, -12552.45, -410.36, 0.000, 0.000, 0.000, 15:10:41.069, 1583439041069
161, -4077.00, 1821.96, 13526.56, -4432.35, -15198.56, 24973.02, -12553.90, -416.70, 0.000, 0.000, 0.000, 15:10:41.069, 1583439041069
162, -3498.58, 1747.95, 13461.14, -4427.68, -15205.73, 24959.83, -12564.32, -410.02, 0.000, 0.000, 0.000, 15:10:41.076, 1583439041076
163, -3694.68, 1751.95, 13413.86, -4423.05, -15176.70, 24984.18, -12578.00, -406.04, 0.000, 0.000, 0.000, 15:10:41.083, 1583439041083
164, -4289.08, 1793.79, 13373.32, -4412.77, -15157.08, 24974.97, -12588.12, -412.55, 0.000, 0.000, 0.000, 15:10:41.084, 1583439041084
165, -4161.83, 1753.07, 13306.95, -4439.57, -15156.18, 24950.22, -12594.45, -412.77, 0.108, -0.016, 1.006, 15:10:41.091, 1583439041091
166, -3541.32, 1676.20, 13217.75, -4491.72, -15134.59, 24958.56, -12598.69, -393.88, 0.000, 0.000, 0.000, 15:10:41.091, 1583439041091
167, -3583.45, 1675.87, 13145.11, -4514.81, -15113.69, 24962.29, -12610.67, -379.67, 0.000, 0.000, 0.000, 15:10:41.098, 1583439041098
168, -4189.16, 1711.79, 13077.98, -4475.82, -15111.77, 24934.29, -12629.63, -371.24, 0.000, 0.000, 0.000, 15:10:41.099, 1583439041099
169, -4232.46, 1689.43, 13022.75, -4486.73, -15122.43, 24905.77, -12653.48, -366.93, 0.000, 0.000, 0.000, 15:10:41.106, 1583439041106
170, -3614.79, 1609.15, 12948.34, -4549.16, -15109.69, 24904.45, -12678.78, -359.35, 0.000, 0.000, 0.000, 15:10:41.106, 1583439041106
171, -3516.33, 1590.17, 12884.33, -4579.63, -15110.34, 24880.91, -12723.53, -354.88, 0.000, 0.000, 0.000, 15:10:41.113, 1583439041113
172, -4136.97, 1634.47, 12834.46, -4571.40, -15108.91, 24859.86, -12776.95, -367.84, 0.000, 0.000, 0.000, 15:10:41.113, 1583439041113
173, -4371.76, 1624.35, 12774.51, -4547.84, -15105.44, 24853.73, -12821.63, -391.76, 0.000, 0.000, 0.000, 15:10:41.121, 1583439041121
174, -3842.89, 1547.95, 12667.40, -4613.74, -15112.71, 24847.16, -12856.83, -399.67, 0.000, 0.000, 0.000, 15:10:41.121, 1583439041121
175, -3633.07, 1507.20, 12599.01, -4660.70, -15113.74, 24848.97, -12861.37, -385.14, 0.112, -0.014, 1.000, 15:10:41.129, 1583439041129
176, -4239.77, 1560.29, 12562.37, -4634.16, -15112.30, 24829.86, -12840.92, -374.12, 0.000, 0.000, 0.000, 15:10:41.129, 1583439041129
177, -4641.81, 1572.76, 12521.89, -4629.40, -15111.48, 24821.46, -12823.02, -364.69, 0.000, 0.000, 0.000, 15:10:41.135, 1583439041135
178, -4179.87, 1502.13, 12498.76, -4687.16, -15098.65, 24836.88, -12804.51, -359.93, 0.000, 0.000, 0.000, 15:10:41.136, 1583439041136
179, -3805.97, 1458.72, 12477.44, -4721.09, -15094.71, 24837.82, -12804.64, -359.04, 0.000, 0.000, 0.000, 15:10:41.143, 1583439041143
180, -4249.76, 1492.83, 12464.99, -4714.07, -15092.88, 24831.51, -12816.31, -368.58, 0.000, 0.000, 0.000, 15:10:41.151, 1583439041151
181, -4718.52, 1517.19, 12448.80, -4633.16, -15089.28, 24837.39, -12823.55, -392.21, 0.000, 0.000, 0.000, 15:10:41.151, 1583439041151
182, -4324.70, 1464.02, 12415.63, -4662.35, -15054.41, 24847.49, -12798.38, -409.19, 0.000, 0.000, 0.000, 15:10:41.159, 1583439041159
183, -3794.54, 1404.16, 12403.70, -4707.63, -15015.14, 24862.45, -12774.98, -404.43, 0.000, 0.000, 0.000, 15:10:41.159, 1583439041159
184, -4083.64, 1444.86, 12435.53, -4671.83, -14997.35, 24860.64, -12775.59, -397.41, 0.000, 0.000, 0.000, 15:10:41.165, 1583439041165
185, -4599.74, 1464.15, 12490.89, -4574.93, -14977.97, 24865.02, -12764.30, -415.76, 0.110, -0.014, 1.002, 15:10:41.165, 1583439041165
186, -4314.83, 1409.79, 12531.39, -4588.68, -14957.72, 24880.80, -12749.81, -422.83, 0.000, 0.000, 0.000, 15:10:41.173, 1583439041173
187, -3687.95, 1329.39, 12553.23, -4613.60, -14931.72, 24901.38, -12746.77, -397.46, 0.000, 0.000, 0.000, 15:10:41.173, 1583439041173
188, -3828.50, 1323.85, 12612.06, -4577.50, -14924.80, 24906.57, -12733.50, -393.17, 0.000, 0.000, 0.000, 15:10:41.182, 1583439041182
189, -4395.29, 1346.56, 12680.97, -4538.05, -14934.81, 24904.34, -12731.26, -404.01, 0.000, 0.000, 0.000, 15:10:41.182, 1583439041182
190, -4252.69, 1275.39, 12727.37, -4528.89, -14932.93, 24918.75, -12725.79, -402.82, 0.000, 0.000, 0.000, 15:10:41.188, 1583439041188
191, -3586.74, 1144.32, 12775.27, -4558.15, -14922.23, 24921.84, -12718.70, -396.12, 0.000, 0.000, 0.000, 15:10:41.188, 1583439041188
192, -3567.94, 1073.35, 12854.22, -4556.60, -14918.07, 24928.43, -12715.48, -396.45, 0.000, 0.000, 0.000, 15:10:41.196, 1583439041196
193, -4144.50, 1050.22, 12972.26, -4519.57, -14931.66, 24925.30, -12731.93, -398.02, 0.000, 0.000, 0.000, 15:10:41.197, 1583439041197
194, -4168.85, 949.90, 13092.65, -4520.62, -14938.21, 24932.39, -12730.15, -398.29, 0.000, 0.000, 0.000, 15:10:41.204, 1583439041204
195, -3494.29, 774.02, 13199.46, -4537.27, -14927.75, 24934.33, -12727.84, -387.38, 0.106, -0.016, 1.002, 15:10:41.210, 1583439041210
196, -3309.38, 675.54, 13321.53, -4547.89, -14924.93, 24931.72, -12736.07, -371.78, 0.000, 0.000, 0.000, 15:10:41.210, 1583439041210
197, -3842.02, 660.02, 13482.19, -4525.54, -14936.91, 24923.00, -12741.92, -370.17, 0.000, 0.000, 0.000, 15:10:41.218, 1583439041218
198, -4000.56, 594.82, 13646.12, -4501.62, -14934.54, 24920.29, -12739.71, -376.78, 0.000, 0.000, 0.000, 15:10:41.218, 1583439041218
199, -3379.18, 442.43, 13786.80, -4533.60, -14913.02, 24932.74, -12731.80, -369.79, 0.000, 0.000, 0.000, 15:10:41.226, 1583439041226
200, -3076.72, 330.96, 13926.83, -4566.84, -14900.25, 24931.43, -12737.39, -334.63, 0.000, 0.000, 0.000, 15:10:41.227, 1583439041227
201, -3592.15, 322.51, 14076.59, -4587.18, -14906.65, 24928.12, -12742.62, -341.11, 0.000, 0.000, 0.000, 15:10:41.233, 1583439041233
202, -3932.59, 268.69, 14212.31, -4592.79, -14909.19, 24934.51, -12739.80, -354.21, 0.000, 0.000, 0.000, 15:10:41.233, 1583439041233
203, -3447.33, 121.75, 14307.49, -4661.50, -14898.08, 24963.08, -12736.22, -333.76, 0.000, 0.000, 0.000, 15:10:41.241, 1583439041241
204, -3019.09, -14.06, 14388.06, -4717.60, -14886.53, 24973.45, -12726.05, -312.86, 0.000, 0.000, 0.000, 15:10:41.241, 1583439041241
205, -3437.36, -34.22, 14482.61, -4706.70, -14894.11, 24964.17, -12722.88, -306.35, 0.112, -0.016, 1.002, 15:10:41.249, 1583439041249
206, -3896.76, -37.10, 14570.41, -4646.08, -14919.90, 24965.40, -12715.50, -315.54, 0.000, 0.000, 0.000, 15:10:41.249, 1583439041249
207, -3497.87, -162.07, 14625.37, -4662.82, -14925.60, 24981.70, -12710.97, -298.40, 0.000, 0.000, 0.000, 15:10:41.256, 1583439041256
208, -2935.14, -298.04, 14667.55, -4655.51, -14919.45, 24992.45, -12698.52, -298.75, 0.000, 0.000, 0.000, 15:10:41.256, 1583439041256
209, -3212.55, -321.11, 14722.74, -4597.66, -14915.47, 24992.18, -12698.41, -312.48, 0.000, 0.000, 0.000, 15:10:41.262, 1583439041262
210, -3751.49, -319.83, 14775.31, -4548.49, -14960.27, 24978.70, -12700.86, -311.72, 0.000, 0.000, 0.000, 15:10:41.271, 1583439041271
211, -3499.79, -421.98, 14795.60, -4551.51, -14961.61, 24964.95, -12700.75, -299.16, 0.000, 0.000, 0.000, 15:10:41.271, 1583439041271
212, -2886.97, -567.49, 14790.19, -4593.80, -14947.91, 24971.77, -12691.25, -275.51, 0.000, 0.000, 0.000, 15:10:41.279, 1583439041279
213, -3024.35, -607.05, 14796.16, -4574.31, -14962.62, 24964.19, -12683.72, -289.37, 0.000, 0.000, 0.000, 15:10:41.279, 1583439041279
214, -3609.05, -601.42, 14810.44, -4484.56, -14970.68, 24955.30, -12684.59, -305.73, 0.112, -0.014, 1.002, 15:10:41.286, 1583439041286
215, -3511.17, -695.25, 14795.96, -4510.60, -14986.71, 24965.69, -12678.29, -283.15, 0.000, 0.000, 0.000, 15:10:41.286, 1583439041286
216, -2874.48, -850.19, 14759.48, -4514.16, -14983.98, 24966.92, -12663.56, -265.74, 0.000, 0.000, 0.000, 15:10:41.293, 1583439041293
217, -2878.82, -895.34, 14727.79, -4576.21, -14955.37, 24972.24, -12656.09, -273.18, 0.000, 0.000, 0.000, 15:10:41.293, 1583439041293
218, -3471.76, -874.58, 14717.37, -4591.76, -15002.36, 24966.43, -12666.78, -244.17, 0.000, 0.000, 0.000, 15:10:41.301, 1583439041301
219, -3544.92, -946.93, 14697.03, -4546.99, -15017.82, 24962.52, -12654.53, -248.22, 0.000, 0.000, 0.000, 15:10:41.301, 1583439041301
220, -2923.65, -1094.21, 14646.16, -4645.16, -14998.18, 24981.16, -12631.80, -235.72, 0.000, 0.000, 0.000, 15:10:41.309, 1583439041309
221, -2747.86, -1150.87, 14605.79, -4696.08, -15033.31, 24987.66, -12619.24, -220.43, 0.000, 0.000, 0.000, 15:10:41.309, 1583439041309
222, -3316.02, -1117.72, 14586.66, -4621.20, -15059.46, 24979.39, -12613.63, -248.86, 0.000, 0.000, 0.000, 15:10:41.316, 1583439041316
223, -3539.87, -1144.23, 14553.35, -4641.65, -15087.14, 24978.90, -12600.30, -217.73, 0.000, 0.000, 0.000, 15:10:41.316, 1583439041316
224, -2963.08, -1260.79, 14490.23, -4738.32, -15125.00, 24980.46, -12578.24, -181.63, 0.110, -0.012, 1.000, 15:10:41.323, 1583439041323
225, -2641.91, -1334.78, 14431.36, -4770.13, -15142.46, 24980.31, -12568.72, -182.64, 0.000, 0.000, 0.000, 15:10:41.331, 1583439041331
226, -3147.44, -1309.52, 14399.06, -4727.48, -15159.33, 24975.08, -12580.92, -178.50, 0.000, 0.000, 0.000, 15:10:41.331, 1583439041331
227, -3521.65, -1291.95, 14368.73, -4743.31, -15190.13, 24971.73, -12586.13, -197.68, 0.000, 0.000, 0.000, 15:10:41.339, 1583439041339
228, -3039.68, -1397.23, 14318.17, -4809.51, -15223.57, 24989.16, -12579.27, -201.88, 0.000, 0.000, 0.000, 15:10:41.339, 1583439041339
229, -2613.57, -1468.96, 14271.45, -4863.23, -15236.92, 24995.84, -12586.96, -184.45, 0.000, 0.000, 0.000, 15:10:41.345, 1583439041345
230, -3035.61, -1431.38, 14257.93, -4861.59, -15246.35, 24977.69, -12604.35, -181.09, 0.000, 0.000, 0.000, 15:10:41.346, 1583439041346
231, -3531.26, -1397.52, 14256.97, -4825.09, -15274.73, 24974.43, -12617.76, -186.70, 0.000, 0.000, 0.000, 15:10:41.353, 1583439041353
232, -3191.85, -1478.68, 14236.70, -4834.84, -15300.44, 24984.80, -12635.33, -184.65, 0.000, 0.000, 0.000, 15:10:41.353, 1583439041353
233, -2684.31, -1578.17, 14212.04, -4876.14, -15310.43, 24991.35, -12652.50, -183.93, 0.000, 0.000, 0.000, 15:10:41.361, 1583439041361
234, -3010.20, -1542.54, 14215.87, -4862.38, -15333.23, 24974.63, -12684.39, -171.01, 0.110, -0.014, 0.990, 15:10:41.361, 1583439041361
235, -3624.78, -1493.03, 14234.73, -4810.12, -15365.42, 24958.36, -12711.73, -177.27, 0.000, 0.000, 0.000, 15:10:41.368, 1583439041368
236, -3468.59, -1548.35, 14233.77, -4810.90, -15397.02, 24966.99, -12725.36, -200.61, 0.000, 0.000, 0.000, 15:10:41.368, 1583439041368
237, -2924.50, -1650.03, 14224.38, -4820.06, -15403.61, 24965.31, -12751.51, -169.81, 0.000, 0.000, 0.000, 15:10:41.376, 1583439041376
238, -3132.04, -1619.65, 14245.75, -4777.39, -15406.19, 24947.25, -12779.52, -159.73, 0.000, 0.000, 0.000, 15:10:41.376, 1583439041376
239, -3803.19, -1515.76, 14283.75, -4736.94, -15419.08, 24932.34, -12794.12, -184.49, 0.000, 0.000, 0.000, 15:10:41.383, 1583439041383
240, -3821.34, -1495.15, 14290.72, -4728.31, -15428.38, 24933.75, -12805.56, -200.25, 0.000, 0.000, 0.000, 15:10:41.383, 1583439041383
241, -3287.36, -1581.30, 14311.40, -4738.95, -15426.48, 24938.31, -12837.97, -190.75, 0.000, 0.000, 0.000, 15:10:41.391, 1583439041391
242, -3382.11, -1549.42, 14406.12, -4680.77, -15441.55, 24937.57, -12860.66, -182.99, 0.000, 0.000, 0.000, 15:10:41.398, 1583439041398
243, -4121.71, -1414.33, 14517.70, -4634.63, -15447.56, 24926.91, -12880.80, -190.97, 0.000, 0.000, 0.000, 15:10:41.398, 1583439041398
244, -4371.15, -1379.55, 14595.71, -4569.23, -15441.39, 24932.43, -12885.83, -220.37, 0.110, -0.020, 0.996, 15:10:41.406, 1583439041406
245, -3895.08, -1419.58, 14675.13, -4576.32, -15425.50, 24943.23, -12890.56, -228.99, 0.000, 0.000, 0.000, 15:10:41.406, 1583439041406
246, -3829.64, -1375.39, 14761.23, -4527.99, -15402.27, 24952.79, -12899.28, -232.39, 0.000, 0.000, 0.000, 15:10:41.414, 1583439041414
247, -4484.21, -1226.89, 14839.72, -4471.27, -15407.41, 24950.60, -12911.91, -243.88, 0.000, 0.000, 0.000, 15:10:41.414, 1583439041414
248, -4809.07, -1132.50, 14891.13, -4435.75, -15404.71, 24953.11, -12917.56, -264.24, 0.000, 0.000, 0.000, 15:10:41.421, 1583439041421
249, -4308.81, -1153.60, 14887.78, -4466.08, -15382.02, 24972.53, -12916.45, -279.11, 0.000, 0.000, 0.000, 15:10:41.421, 1583439041421
250, -4019.83, -1112.47, 14877.79, -4511.72, -15366.69, 24984.55, -12917.21, -286.55, 0.000, 0.000, 0.000, 15:10:41.428, 1583439041428
251, -4513.73, -1009.81, 14893.48, -4445.67, -15379.32, 24975.57, -12931.80, -296.99, 0.000, 0.000, 0.000, 15:10:41.428, 1583439041428
252, -4888.86, -893.94, 14898.46, -4424.19, -15382.72, 24971.03, -12940.92, -319.16, 0.000, 0.000, 0.000, 15:10:41.436, 1583439041436
253, -4436.22, -880.19, 14934.23, -4451.66, -15377.60, 24984.15, -12936.65, -331.50, 0.000, 0.000, 0.000, 15:10:41.437, 1583439041437
254, -3988.47, -855.69, 15024.46, -4493.30, -15365.50, 24995.06, -12933.48, -331.28, 0.114, -0.018, 0.998, 15:10:41.444, 1583439041444
255, -4344.31, -721.67, 15095.00, -4464.40, -15402.05, 24986.99, -12942.49, -350.07, 0.000, 0.000, 0.000, 15:10:41.444, 1583439041444
0, -4796.73, -580.88, 15162.55, -4441.00, -15425.63, 24986.21, -12953.66, -368.71, 0.000, 0.000, 0.000, 15:10:41.450, 1583439041450
1, -4444.35, -564.61, 15227.28, -4464.90, -15431.06, 24997.59, -12952.17, -373.81, 0.000, 0.000, 0.000, 15:10:41.458, 1583439041458
2, -3885.45, -547.19, 15274.51, -4502.18, -15434.15, 25004.58, -12946.67, -381.14, 0.000, 0.000, 0.000, 15:10:41.458, 1583439041458
3, -4099.13, -430.52, 15334.41, -4488.83, -15448.83, 25001.79, -12951.00, -389.97, 0.000, 0.000, 0.000, 15:10:41.466, 1583439041466
4, -4609.69, -289.52, 15388.08, -4459.26, -15459.63, 24999.82, -12950.44, -411.32, 0.000, 0.000, 0.000, 15:10:41.467, 1583439041467
5, -4392.41, -246.67, 15414.39, -4480.63, -15476.50, 25003.13, -12946.46, -420.59, 0.000, 0.000, 0.000, 15:10:41.474, 1583439041474
6, -3785.42, -256.04, 15416.91, -4510.05, -15464.08, 25007.55, -12939.49, -417.13, 0.000, 0.000, 0.000, 15:10:41.474, 1583439041474
7, -3867.84, -177.99, 15428.20, -4509.55, -15459.09, 25002.10, -12938.28, -428.01, 0.000, 0.000, 0.000, 15:10:41.481, 1583439041481
8, -4424.71, -57.87, 15449.41, -4484.05, -15476.59, 24994.95, -12936.14, -452.33, 0.116, -0.018, 0.988, 15:10:41.481, 1583439041481
9, -4370.21, -17.41, 15453.59, -4494.38, -15479.86, 24995.29, -12931.31, -447.35, 0.000, 0.000, 0.000, 15:10:41.489, 1583439041489
10, -3744.12, -40.17, 15425.65, -4543.91, -15452.30, 25004.85, -12910.41, -453.94, 0.000, 0.000, 0.000, 15:10:41.489, 1583439041489
11, -3685.51, -3.71, 15387.10, -4518.49, -15440.20, 24995.49, -12891.90, -471.09, 0.000, 0.000, 0.000, 15:10:41.497, 1583439041497
12, -4260.94, 97.16, 15385.73, -4462.73, -15460.90, 24975.77, -12902.81, -463.04, 0.000, 0.000, 0.000, 15:10:41.497, 1583439041497
13, -4383.18, 134.51, 15382.96, -4448.04, -15458.89, 24966.16, -12895.77, -465.18, 0.000, 0.000, 0.000, 15:10:41.503, 1583439041503
14, -3801.12, 93.56, 15348.79, -4486.44, -15430.15, 24963.52, -12876.77, -451.01, 0.000, 0.000, 0.000, 15:10:41.504, 1583439041504
15, -3617.29, 115.13, 15321.58, -4467.29, -15417.36, 24953.69, -12857.75, -449.85, 0.000, 0.000, 0.000, 15:10:41.511, 1583439041511
16, -4161.81, 206.57, 15303.17, -4415.27, -15429.90, 24920.61, -12857.37, -443.12, 0.000, 0.000, 0.000, 15:10:41.519, 1583439041519
17, -4418.54, 246.18, 15283.41, -4404.05, -15433.19, 24904.38, -12852.07, -435.88, 0.112, -0.014, 0.998, 15:10:41.519, 1583439041519
18, -3876.49, 207.29, 15252.56, -4423.83, -15413.47, 24910.37, -12835.80, -423.59, 0.000, 0.000, 0.000, 15:10:41.526, 1583439041526
19, -3551.89, 199.09, 15219.37, -4437.36, -15386.49, 24906.55, -12817.23, -418.80, 0.000, 0.000, 0.000, 15:10:41.526, 1583439041526
20, -4009.75, 277.56, 15206.81, -4400.63, -15381.73, 24889.07, -12816.04, -425.06, 0.000, 0.000, 0.000, 15:10:41.533, 1583439041533
21, -4380.52, 330.76, 15204.13, -4373.81, -15375.76, 24880.29, -12816.74, -420.50, 0.000, 0.000, 0.000, 15:10:41.533, 1583439041533
22, -3935.16, 293.28, 15176.41, -4384.00, -15348.96, 24894.39, -12795.97, -420.03, 0.000, 0.000, 0.000, 15:10:41.541, 1583439041541
23, -3478.76, 267.24, 15143.11, -4412.88, -15309.47, 24908.78, -12772.26, -424.17, 0.000, 0.000, 0.000, 15:10:41.541, 1583439041541
24, -3835.94, 324.37, 15140.87, -4382.44, -15297.58, 24904.34, -12773.82, -430.87, 0.000, 0.000, 0.000, 15:10:41.549, 1583439041549
25, -4321.49, 386.95, 15154.35, -4354.23, -15292.30, 24900.24, -12789.31, -428.42, 0.000, 0.000, 0.000, 15:10:41.549, 1583439041549
26, -4008.20, 352.96, 15143.26, -4377.39, -15270.49, 24915.58, -12766.96, -431.81, 0.000, 0.000, 0.000, 15:10:41.556, 1583439041556
27, -3465.95, 296.81, 15127.24, -4402.76, -15228.87, 24949.82, -12753.28, -435.39, 0.110, -0.014, 1.004, 15:10:41.556, 1583439041556
28, -3696.69, 350.50, 15127.12, -4369.34, -15204.19, 24979.08, -12754.84, -448.62, 0.000, 0.000, 0.000, 15:10:41.564, 1583439041564
29, -4264.24, 431.05, 15133.90, -4329.82, -15181.15, 25008.27, -12765.82, -444.29, 0.000, 0.000, 0.000, 15:10:41.564, 1583439041564
30, -4112.88, 411.81, 15120.24, -4356.53, -15157.43, 25071.46, -12774.51, -444.73, 0.000, 0.000, 0.000, 15:10:41.570, 1583439041570
31, -3523.55, 341.22, 15086.85, -4421.53, -15116.82, 25140.30, -12783.97, -446.97, 0.000, 0.000, 0.000, 15:10:41.579, 1583439041579
32, -3607.15, 373.12, 15063.91, -4409.15, -15079.89, 25195.27, -12814.19, -446.30, 0.000, 0.000, 0.000, 15:10:41.579, 1583439041579
33, -4199.54, 447.95, 15045.05, -4362.41, -15063.67, 25254.03, -12869.20, -445.67, 0.000, 0.000, 0.000, 15:10:41.586, 1583439041586
34, -4191.65, 436.44, 14988.77, -4381.46, -15053.99, 25298.91, -12948.19, -366.37, 0.000, 0.000, 0.000, 15:10:41.586, 1583439041586
35, -3584.21, 363.46, 14885.79, -4416.08, -15041.49, 25336.19, -13007.13, -326.65, 0.000, 0.000, 0.000, 15:10:41.593, 1583439041593
36, -3523.60, 383.06, 14781.34, -4395.45, -15044.76, 25381.10, -13077.56, -319.29, 0.000, 0.000, 0.000, 15:10:41.593, 1583439041593
37, -4105.43, 456.00, 14685.97, -4336.31, -15056.11, 25407.43, -13141.46, -324.90, 0.112, -0.014, 1.008, 15:10:41.601, 1583439041601
38, -4252.51, 467.24, 14578.30, -4334.18, -15073.61, 25433.51, -13209.70, -334.32, 0.000, 0.000, 0.000, 15:10:41.601, 1583439041601
39, -3668.08, 379.93, 14446.74, -4365.47, -15067.38, 25469.25, -13277.20, -329.26, 0.000, 0.000, 0.000, 15:10:41.609, 1583439041609
40, -3456.72, 354.59, 14340.61, -4387.69, -15086.09, 25470.62, -13314.82, -333.62, 0.000, 0.000, 0.000, 15:10:41.609, 1583439041609
41, -3998.57, 414.04, 14226.77, -4345.25, -15116.86, 25458.26, -13335.09, -357.78, 0.000, 0.000, 0.000, 15:10:41.616, 1583439041616
42, -4283.40, 431.28, 14045.10, -4310.69, -15158.64, 25428.21, -13340.15, -373.25, 0.000, 0.000, 0.000, 15:10:41.616, 1583439041616
43, -3768.97, 361.70, 13852.49, -4357.41, -15178.22, 25431.57, -13314.29, -391.16, 0.000, 0.000, 0.000, 15:10:41.624, 1583439041624
44, -3413.65, 325.66, 13692.10, -4391.38, -15200.95, 25422.29, -13291.71, -397.17, 0.000, 0.000, 0.000, 15:10:41.624, 1583439041624
45, -3865.64, 381.52, 13591.96, -4366.61, -15241.36, 25385.57, -13283.37, -393.32, 0.000, 0.000, 0.000, 15:10:41.631, 1583439041631
46, -4256.24, 401.10, 13513.91, -4355.73, -15279.29, 25361.83, -13258.23, -396.83, 0.000, 0.000, 0.000, 15:10:41.631, 1583439041631
47, -3823.29, 329.78, 13410.73, -4404.55, -15281.08, 25352.69, -13225.64, -384.49, 0.112, -0.014, 1.000, 15:10:41.639, 1583439041639
48, -3334.12, 266.79, 13316.19, -4441.02, -15276.34, 25346.23, -13195.78, -379.40, 0.000, 0.000, 0.000, 15:10:41.646, 1583439041646
49, -3652.63, 300.99, 13220.23, -4435.50, -15295.61, 25309.79, -13167.97, -382.42, 0.000, 0.000, 0.000, 15:10:41.646, 1583439041646
50, -4127.92, 337.98, 13127.18, -4415.56, -15333.12, 25274.90, -13146.89, -386.73, 0.000, 0.000, 0.000, 15:10:41.653, 1583439041653
51, -3803.51, 275.62, 13013.83, -4461.03, -15341.03, 25270.50, -13115.80, -388.61, 0.000, 0.000, 0.000, 15:10:41.653, 1583439041653
52, -3224.62, 201.14, 12890.83, -4509.08, -15343.78, 25269.94, -13084.06, -372.02, 0.000, 0.000, 0.000, 15:10:41.661, 1583439041661
53, -3411.90, 216.52, 12805.00, -4513.44, -15356.47, 25248.37, -13059.95, -370.77, 0.000, 0.000, 0.000, 15:10:41.661, 1583439041661
54, -3956.12, 264.78, 12761.91, -4501.31, -15376.08, 25228.73, -13032.77, -383.02, 0.000, 0.000, 0.000, 15:10:41.668, 1583439041668
55, -3789.09, 222.24, 12725.72, -4525.13, -15393.60, 25222.45, -12990.52, -379.31, 0.000, 0.000, 0.000, 15:10:41.668, 1583439041668
56, -3166.82, 138.31, 12675.76, -4586.00, -15412.02, 25209.21, -12952.03, -356.35, 0.000, 0.000, 0.000, 15:10:41.676, 1583439041676
57, -3221.69, 138.54, 12612.40, -4603.41, -15423.62, 25191.78, -12910.05, -365.88, 0.110, -0.018, 0.998, 15:10:41.676, 1583439041676
58, -3793.56, 185.61, 12546.68, -4587.11, -15452.77, 25172.62, -12867.65, -383.60, 0.000, 0.000, 0.000, 15:10:41.685, 1583439041685
59, -3780.02, 154.54, 12484.66, -4620.93, -15481.06, 25156.20, -12835.78, -382.30, 0.000, 0.000, 0.000, 15:10:41.685, 1583439041685
60, -3150.50, 43.52, 12421.89, -4687.32, -15495.84, 25148.01, -12795.90, -361.92, 0.000, 0.000, 0.000, 15:10:41.691, 1583439041691
61, -3044.11, -3.17, 12391.54, -4678.98, -15511.60, 25132.55, -12775.56, -340.28, 0.000, 0.000, 0.000, 15:10:41.691, 1583439041691
62, -3607.03, 48.15, 12411.01, -4644.27, -15541.86, 25096.16, -12767.03, -350.90, 0.000, 0.000, 0.000, 15:10:41.698, 1583439041698
63, -3760.10, 30.82, 12440.67, -4639.08, -15567.23, 25080.24, -12742.37, -344.60, 0.000, 0.000, 0.000, 15:10:41.706, 1583439041706
64, -3167.91, -71.64, 12409.78, -4684.84, -15581.71, 25084.18, -12708.60, -337.06, 0.000, 0.000, 0.000, 15:10:41.706, 1583439041706
65, -2924.88, -119.02, 12352.27, -4704.13, -15594.79, 25097.39, -12699.68, -343.01, 0.000, 0.000, 0.000, 15:10:41.714, 1583439041714
66, -3445.32, -76.15, 12319.95, -4678.98, -15621.39, 25065.58, -12726.01, -334.70, 0.000, 0.000, 0.000, 15:10:41.714, 1583439041714
67, -3742.37, -77.00, 12312.08, -4667.69, -15633.52, 25026.29, -12723.22, -312.34, 0.116, -0.010, 1.004, 15:10:41.721, 1583439041721
68, -3224.26, -182.10, 12313.51, -4700.66, -15651.43, 25040.05, -12694.92, -308.41, 0.000, 0.000, 0.000, 15:10:41.721, 1583439041721
69, -2855.97, -255.61, 12339.84, -4725.74, -15679.79, 25041.08, -12688.77, -299.96, 0.000, 0.000, 0.000, 15:10:41.728, 1583439041728
70, -3302.00, -217.91, 12406.09, -4707.48, -15695.60, 25028.83, -12700.31, -301.46, 0.000, 0.000, 0.000, 15:10:41.728, 1583439041728
71, -3723.76, -202.19, 12495.32, -4689.13, -15711.80, 25024.48, -12709.69, -314.24, 0.000, 0.000, 0.000, 15:10:41.736, 1583439041736
72, -3309.89, -306.87, 12570.13, -4722.32, -15719.36, 25030.60, -12706.83, -318.74, 0.000, 0.000, 0.000, 15:10:41.737, 1583439041737
73, -2829.44, -404.99, 12653.97, -4759.60, -15717.32, 25043.86, -12695.92, -335.61, 0.000, 0.000, 0.000, 15:10:41.744, 1583439041744
74, -3156.40, -382.21, 12785.93, -4737.43, -15716.94, 25048.95, -12691.45, -358.90, 0.000, 0.000, 0.000, 15:10:41.744, 1583439041744
75, -3663.61, -357.83, 12929.61, -4720.53, -15745.66, 25043.21, -12709.83, -358.57, 0.000, 0.000, 0.000, 15:10:41.751, 1583439041751
76, -3383.74, -461.94, 13050.31, -4769.17, -15749.24, 25056.26, -12711.75, -375.53, 0.000, 0.000, 0.000, 15:10:41.751, 1583439041751
77, -2830.96, -573.97, 13166.47, -4811.77, -15760.35, 25079.91, -12704.15, -370.88, 0.114, -0.016, 0.996, 15:10:41.758, 1583439041758
78, -3026.98, -586.67, 13285.12, -4791.25, -15765.22, 25111.36, -12696.21, -381.99, 0.000, 0.000, 0.000, 15:10:41.766, 1583439041766
79, -3584.97, -554.12, 13391.29, -4763.98, -15773.67, 25105.72, -12678.56, -424.50, 0.000, 0.000, 0.000, 15:10:41.766, 1583439041766
80, -3454.60, -624.37, 13467.86, -4779.92, -15790.21, 25127.83, -12659.56, -420.82, 0.000, 0.000, 0.000, 15:10:41.774, 1583439041774
81, -2869.74, -749.52, 13528.53, -4823.89, -15819.38, 25219.36, -12640.58, -401.71, 0.000, 0.000, 0.000, 15:10:41.774, 1583439041774
82, -2924.08, -768.99, 13606.67, -4825.54, -15816.79, 25153.49, -12616.64, -424.62, 0.000, 0.000, 0.000, 15:10:41.780, 1583439041780
83, -3499.21, -691.29, 13690.53, -4805.16, -15810.51, 25124.52, -12594.07, -446.34, 0.000, 0.000, 0.000, 15:10:41.781, 1583439041781
84, -3521.96, -733.41, 13765.39, -4804.19, -15822.78, 25144.30, -12564.90, -466.24, 0.000, 0.000, 0.000, 15:10:41.788, 1583439041788
85, -2931.07, -858.78, 13829.43, -4834.08, -15840.48, 25186.75, -12493.82, -500.54, 0.000, 0.000, 0.000, 15:10:41.789, 1583439041789
86, -2836.73, -894.67, 13888.35, -4829.94, -15853.18, 25234.52, -12471.71, -510.09, 0.112, -0.018, 1.002, 15:10:41.797, 1583439041797
87, -3396.79, -838.28, 13955.94, -4796.77, -15841.69, 25205.66, -12473.23, -512.35, 0.000, 0.000, 0.000, 15:10:41.797, 1583439041797
88, -3566.58, -842.79, 14014.50, -4791.39, -15822.69, 25197.03, -12468.76, -545.45, 0.000, 0.000, 0.000, 15:10:41.804, 1583439041804
89, -3009.08, -947.98, 14063.00, -4812.53, -15845.15, 25203.29, -12448.71, -557.68, 0.000, 0.000, 0.000, 15:10:41.804, 1583439041804
90, -2763.44, -1001.63, 14129.16, -4821.49, -15877.90, 25223.25, -12441.96, -563.42, 0.000, 0.000, 0.000, 15:10:41.811, 1583439041811
91, -3266.42, -943.00, 14225.01, -4790.34, -15868.60, 25226.22, -12447.80, -575.96, 0.000, 0.000, 0.000, 15:10:41.811, 1583439041811
92, -3576.48, -920.02, 14318.06, -4768.50, -15855.97, 25232.41, -12444.11, -601.62, 0.000, 0.000, 0.000, 15:10:41.818, 1583439041818
93, -3099.32, -1004.58, 14381.31, -4790.81, -15852.88, 25247.72, -12426.16, -615.46, 0.000, 0.000, 0.000, 15:10:41.826, 1583439041826
94, -2736.14, -1048.83, 14445.89, -4809.89, -15865.02, 25245.76, -12402.09, -613.58, 0.000, 0.000, 0.000, 15:10:41.827, 1583439041827
95, -3161.50, -984.30, 14532.86, -4779.61, -15849.60, 25231.01, -12391.00, -623.48, 0.000, 0.000, 0.000, 15:10:41.833, 1583439041833
96, -3590.61, -938.26, 14623.25, -4754.22, -15829.59, 25213.64, -12391.23, -636.51, 0.110, -0.018, 0.998, 15:10:41.833, 1583439041833
97, -3224.51, -1007.91, 14695.22, -4778.74, -15844.30, 25218.98, -12399.32, -632.84, 0.000, 0.000, 0.000, 15:10:41.841, 1583439041841
98, -2763.06, -1067.05, 14766.50, -4809.09, -15865.11, 25211.74, -12409.71, -621.15, 0.000, 0.000, 0.000, 15:10:41.841, 1583439041841
99, -3081.52, -1020.29, 14859.04, -4786.49, -15876.60, 25194.86, -12425.25, -622.72, 0.000, 0.000, 0.000, 15:10:41.849, 1583439041849
100, -3609.38, -948.88, 14966.06, -4758.89, -15870.32, 25180.31, -12461.03, -605.55, 0.000, 0.000, 0.000, 15:10:41.849, 1583439041849
101, -3385.82, -984.75, 15053.83, -4794.94, -15870.07, 25154.16, -12466.71, -592.99, 0.000, 0.000, 0.000, 15:10:41.856, 1583439041856
102, -2855.61, -1041.30, 15144.65, -4830.12, -15886.68, 25143.90, -12455.06, -569.01, 0.000, 0.000, 0.000, 15:10:41.856, 1583439041856
103, -3040.28, -991.90, 15251.18, -4826.81, -15909.68, 25120.34, -12461.79, -542.70, 0.000, 0.000, 0.000, 15:10:41.864, 1583439041864
104, -3612.98, -887.30, 15365.68, -4785.11, -15914.24, 25104.94, -12483.61, -542.75, 0.000, 0.000, 0.000, 15:10:41.864, 1583439041864
105, -3529.92, -887.45, 15458.11, -4793.24, -15911.58, 25096.05, -12504.64, -533.45, 0.000, 0.000, 0.000, 15:10:41.872, 1583439041872
106, -2963.64, -943.78, 15525.59, -4845.28, -15917.59, 25100.54, -12514.00, -477.32, 0.110, -0.018, 0.998, 15:10:41.872, 1583439041872
107, -3008.61, -899.30, 15608.58, -4842.08, -15912.92, 25111.07, -12512.04, -446.25, 0.000, 0.000, 0.000, 15:10:41.879, 1583439041879
108, -3596.89, -777.19, 15700.71, -4815.55, -15924.72, 25079.44, -12525.94, -428.39, 0.000, 0.000, 0.000, 15:10:41.879, 1583439041879
109, -3658.87, -753.16, 15760.75, -4829.83, -15924.90, 25073.02, -12522.23, -414.38, 0.000, 0.000, 0.000, 15:10:41.886, 1583439041886
110, -3095.16, -796.86, 15814.57, -4864.23, -15930.56, 25083.98, -12525.81, -395.89, 0.000, 0.000, 0.000, 15:10:41.893, 1583439041893
111, -2996.97, -763.18, 15878.88, -4870.98, -15932.93, 25081.85, -12529.40, -388.00, 0.000, 0.000, 0.000, 15:10:41.893, 1583439041893
112, -3565.48, -659.69, 15944.75, -4852.56, -15928.05, 25075.08, -12547.42, -373.83, 0.000, 0.000, 0.000, 15:10:41.901, 1583439041901
113, -3779.17, -608.10, 15998.48, -4846.04, -15939.23, 25076.89, -12556.29, -372.13, 0.000, 0.000, 0.000, 15:10:41.901, 1583439041901
114, -3250.26, -650.46, 16036.06, -4894.41, -15947.97, 25092.29, -12552.09, -369.38, 0.000, 0.000, 0.000, 15:10:41.910, 1583439041910
115, -3004.43, -666.01, 16074.26, -4911.95, -15940.95, 25098.04, -12562.31, -351.95, 0.000, 0.000, 0.000, 15:10:41.910, 1583439041910
116, -3516.78, -573.23, 16139.41, -4896.91, -15944.37, 25078.19, -12573.17, -351.86, 0.112, -0.012, 1.000, 15:10:41.916, 1583439041916
117, -3866.72, -514.25, 16201.97, -4895.84, -15944.42, 25079.77, -12579.87, -359.91, 0.000, 0.000, 0.000, 15:10:41.916, 1583439041916
118, -3420.08, -559.11, 16237.07, -4942.40, -15946.94, 25095.49, -12576.41, -362.03, 0.000, 0.000, 0.000, 15:10:41.924, 1583439041924
119, -3050.05, -580.18, 16267.15, -4975.36, -15950.03, 25106.66, -12579.07, -349.72, 0.000, 0.000, 0.000, 15:10:41.924, 1583439041924
120, -3476.23, -492.10, 16319.16, -4956.99, -15931.90, 25104.43, -12587.47, -359.80, 0.000, 0.000, 0.000, 15:10:41.932, 1583439041932
121, -3934.02, -418.89, 16370.55, -4909.67, -15919.22, 25113.10, -12587.50, -374.21, 0.000, 0.000, 0.000, 15:10:41.932, 1583439041932
122, -3596.04, -442.10, 16392.84, -4933.14, -15919.09, 25122.64, -12587.59, -368.38, 0.000, 0.000, 0.000, 15:10:41.938, 1583439041938
123, -3127.43, -464.27, 16404.91, -4964.14, -15920.57, 25126.76, -12591.34, -359.89, 0.000, 0.000, 0.000, 15:10:41.939, 1583439041939
124, -3436.74, -386.33, 16431.62, -4938.33, -15913.01, 25152.28, -12585.95, -358.68, 0.000, 0.000, 0.000, 15:10:41.945, 1583439041945
125, -3981.78, -283.87, 16466.15, -4900.93, -15899.04, 25149.47, -12569.46, -362.61, 0.000, 0.000, 0.000, 15:10:41.953, 1583439041953
126, -3780.93, -281.88, 16480.81, -4912.29, -15894.03, 25137.46, -12556.14, -366.14, 0.108, -0.014, 1.004, 15:10:41.954, 1583439041954
127, -3235.55, -305.19, 16486.94, -4934.64, -15896.31, 25150.12, -12550.26, -368.29, 0.000, 0.000, 0.000, 15:10:41.962, 1583439041962
128, -3398.07, -229.24, 16511.52, -4920.94, -15892.29, 25159.23, -12557.90, -368.51, 0.000, 0.000, 0.000, 15:10:41.962, 1583439041962
129, -3971.50, -121.53, 16547.44, -4874.89, -15898.17, 25163.68, -12557.54, -378.01, 0.000, 0.000, 0.000, 15:10:41.968, 1583439041968
130, -3895.80, -107.00, 16563.38, -4883.43, -15906.10, 25163.10, -12543.33, -388.47, 0.000, 0.000, 0.000, 15:10:41.968, 1583439041968
131, -3304.68, -144.08, 16561.70, -4921.76, -15924.77, 25180.51, -12520.75, -393.66, 0.000, 0.000, 0.000, 15:10:41.976, 1583439041976
132, -3308.84, -92.04, 16578.18, -4894.18, -15920.32, 25183.04, -12508.30, -385.81, 0.000, 0.000, 0.000, 15:10:41.976, 1583439041976
133, -3889.45, 16.50, 16613.89, -4847.22, -15914.82, 25182.50, -12499.09, -414.56, 0.000, 0.000, 0.000, 15:10:41.984, 1583439041984
134, -3958.31, 46.78, 16633.81, -4846.75, -15917.35, 25196.76, -12485.30, -429.18, 0.000, 0.000, 0.000, 15:10:41.984, 1583439041984
135, -3364.07, 6.48, 16632.40, -4871.23, -15927.03, 25204.52, -12461.25, -407.49, 0.000, 0.000, 0.000, 15:10:41.991, 1583439041991
136, -3212.97, 25.06, 16643.62, -4848.79, -15935.25, 25207.89, -12442.75, -383.71, 0.116, -0.014, 1.004, 15:10:41.991, 1583439041991
137, -3768.33, 124.63, 16677.08, -4797.78, -15932.41, 25203.89, -12422.07, -380.29, 0.000, 0.000, 0.000, 15:10:41.999, 1583439041999
138, -3989.29, 180.13, 16702.47, -4789.96, -15954.14, 25213.42, -12405.02, -384.61, 0.000, 0.000, 0.000, 15:10:41.999, 1583439041999
139, -3440.51, 158.90, 16702.09, -4823.75, -15965.09, 25214.96, -12385.08, -375.76, 0.000, 0.000, 0.000, 15:10:42.006, 1583439042006
140, -3147.26, 197.81, 16689.31, -4812.49, -15971.15, 25218.00, -12373.23, -342.56, 0.000, 0.000, 0.000, 15:10:42.014, 1583439042014
141, -3636.05, 307.72, 16688.24, -4770.31, -15974.03, 25208.03, -12363.04, -324.08, 0.000, 0.000, 0.000, 15:10:42.014, 1583439042014
142, -3989.83, 367.73, 16745.52, -4767.60, -15979.11, 25205.53, -12348.44, -320.66, 0.000, 0.000, 0.000, 15:10:42.021, 1583439042021
143, -3517.85, 341.78, 16792.73, -4802.05, -15985.36, 25211.56, -12330.72, -310.64, 0.000, 0.000, 0.000, 15:10:42.021, 1583439042021
144, -3098.69, 333.40, 16798.70, -4828.36, -15980.58, 25215.81, -12321.98, -274.10, 0.000, 0.000, 0.000, 15:10:42.028, 1583439042028
145, -3502.76, 426.72, 16809.38, -4808.28, -15971.57, 25205.88, -12319.92, -247.01, 0.110, -0.016, 1.000, 15:10:42.028, 1583439042028
146, -3962.85, 508.14, 16820.16, -4791.68, -15977.45, 25184.40, -12321.13, -227.14, 0.000, 0.000, 0.000, 15:10:42.036, 1583439042036
147, -3611.80, 500.99, 16824.27, -4817.38, -15980.33, 25181.43, -12312.84, -206.66, 0.000, 0.000, 0.000, 15:10:42.036, 1583439042036
148, -3096.39, 486.02, 16829.01, -4824.67, -15972.00, 25176.18, -12304.55, -172.58, 0.000, 0.000, 0.000, 15:10:42.044, 1583439042044
149, -3381.08, 562.24, 16865.82, -4798.29, -15968.38, 25153.98, -12295.18, -150.38, 0.000, 0.000, 0.000, 15:10:42.045, 1583439042045
150, -3941.77, 650.99, 16926.39, -4764.16, -15967.37, 25119.63, -12289.75, -143.72, 0.000, 0.000, 0.000, 15:10:42.051, 1583439042051
151, -3737.48, 634.28, 16983.99, -4776.66, -15991.60, 25100.76, -12294.29, -117.82, 0.000, 0.000, 0.000, 15:10:42.051, 1583439042051
152, -3156.94, 593.53, 17037.08, -4813.00, -15995.62, 25112.21, -12265.92, -106.30, 0.000, 0.000, 0.000, 15:10:42.059, 1583439042059
153, -3310.05, 637.49, 17100.78, -4777.82, -16006.62, 25050.09, -12267.58, -100.58, 0.000, 0.000, 0.000, 15:10:42.059, 1583439042059
154, -3925.52, 717.74, 17175.77, -4717.60, -16014.78, 24979.28, -12282.82, -116.39, 0.000, 0.000, 0.000, 15:10:42.066, 1583439042066
155, -3887.80, 719.15, 17237.20, -4721.27, -16032.55, 24959.48, -12306.02, -116.32, 0.110, -0.016, 0.998, 15:10:42.074, 1583439042074
156, -3287.63, 664.54, 17285.52, -4741.79, -16064.35, 24933.37, -12322.23, -103.85, 0.000, 0.000, 0.000, 15:10:42.074, 1583439042074
157, -3299.18, 682.76, 17358.39, -4726.86, -16084.00, 24895.08, -12326.58, -118.89, 0.000, 0.000, 0.000, 15:10:42.081, 1583439042081
158, -3946.56, 769.10, 17457.67, -4690.98, -16113.39, 24853.73, -12312.10, -135.94, 0.000, 0.000, 0.000, 15:10:42.081, 1583439042081
159, -4090.30, 793.42, 17537.13, -4685.24, -16144.87, 24833.48, -12303.61, -167.19, 0.000, 0.000, 0.000, 15:10:42.089, 1583439042089
160, -3462.24, 720.24, 17584.61, -4693.33, -16143.97, 24815.17, -12334.00, -185.99, 0.000, 0.000, 0.000, 15:10:42.089, 1583439042089
161, -3240.04, 723.48, 17635.50, -4679.63, -16101.68, 24805.36, -12378.11, -124.03, 0.000, 0.000, 0.000, 15:10:42.097, 1583439042097
162, -4031.79, 817.58, 17717.91, -4610.29, -16201.48, 24762.78, -12391.00, -90.10, 0.000, 0.000, 0.000, 15:10:42.097, 1583439042097
163, -4556.00, 865.35, 17786.87, -4572.54, -16290.89, 24728.74, -12376.70, -72.89, 0.000, 0.000, 0.000, 15:10:42.103, 1583439042103
164, -3930.22, 799.83, 17808.24, -4612.08, -16220.10, 24739.09, -12353.72, -4.16, 0.000, 0.000, 0.000, 15:10:42.103, 1583439042103
165, -3570.18, 773.62, 17825.92, -4627.86, -16141.78, 24743.92, -12341.05, 76.80, 0.110, -0.020, 1.002, 15:10:42.111, 1583439042111
166, -4405.39, 862.89, 17875.90, -4561.37, -16228.17, 24690.99, -12353.18, 122.15, 0.000, 0.000, 0.000, 15:10:42.112, 1583439042112
167, -5107.35, 927.91, 17918.90, -4524.71, -16318.70, 24652.07, -12362.71, 185.07, 0.000, 0.000, 0.000, 15:10:42.119, 1583439042119
168, -4536.60, 867.99, 17903.39, -4565.30, -16267.35, 24649.75, -12342.99, 262.70, 0.000, 0.000, 0.000, 15:10:42.120, 1583439042120
169, -3911.60, 819.30, 17876.70, -4585.77, -16176.16, 24652.70, -12318.18, 295.87, 0.000, 0.000, 0.000, 15:10:42.126, 1583439042126
170, -4506.45, 893.15, 17882.02, -4539.04, -16239.50, 24624.33, -12349.61, 276.22, 0.000, 0.000, 0.000, 15:10:42.126, 1583439042126
171, -5299.55, 979.45, 17890.58, -4503.94, -16336.15, 24556.92, -12422.56, 294.84, 0.000, 0.000, 0.000, 15:10:42.133, 1583439042133
172, -4859.58, 936.29, 17851.15, -4541.72, -16289.24, 24525.70, -12436.00, 350.92, 0.000, 0.000, 0.000, 15:10:42.141, 1583439042141
173, -4039.90, 873.04, 17787.36, -4600.35, -16173.30, 24541.32, -12425.20, 361.83, 0.000, 0.000, 0.000, 15:10:42.141, 1583439042141
174, -4388.81, 932.98, 17757.88, -4594.60, -16211.29, 24518.16, -12440.85, 332.64, 0.000, 0.000, 0.000, 15:10:42.149, 1583439042149
175, -5245.78, 1034.10, 17746.97, -4553.85, -16340.80, 24485.02, -12466.39, 299.02, 0.114, -0.018, 0.994, 15:10:42.149, 1583439042149
176, -4989.02, 1010.95, 17697.42, -4560.85, -16313.78, 24480.10, -12478.35, 333.11, 0.000, 0.000, 0.000, 15:10:42.158, 1583439042158
177, -4067.77, 936.94, 17629.20, -4615.68, -16192.97, 24509.54, -12467.96, 361.14, 0.000, 0.000, 0.000, 15:10:42.158, 1583439042158
178, -4193.79, 985.60, 17607.54, -4606.92, -16198.89, 24500.91, -12477.39, 343.39, 0.000, 0.000, 0.000, 15:10:42.164, 1583439042164
179, -5086.85, 1109.72, 17579.89, -4567.82, -16313.51, 24497.27, -12490.18, 307.31, 0.000, 0.000, 0.000, 15:10:42.165, 1583439042165
180, -5045.24, 1112.89, 17544.20, -4546.37, -16329.87, 24536.54, -12471.78, 292.99, 0.000, 0.000, 0.000, 15:10:42.171, 1583439042171
181, -4090.88, 1045.03, 17511.38, -4590.85, -16203.32, 24550.91, -12458.19, 307.52, 0.000, 0.000, 0.000, 15:10:42.172, 1583439042172
182, -3979.46, 1089.40, 17462.70, -4586.58, -16181.46, 24534.46, -12485.57, 341.24, 0.000, 0.000, 0.000, 15:10:42.180, 1583439042180
183, -4860.25, 1215.24, 17441.89, -4534.43, -16306.29, 24498.94, -12496.90, 329.55, 0.000, 0.000, 0.000, 15:10:42.180, 1583439042180
184, -5054.76, 1251.63, 17400.90, -4538.88, -16358.15, 24498.43, -12495.09, 286.28, 0.000, 0.000, 0.000, 15:10:42.186, 1583439042186
185, -4131.92, 1187.88, 17347.61, -4589.35, -16246.19, 24560.72, -12498.18, 263.82, 0.114, -0.016, 0.988, 15:10:42.187, 1583439042187
186, -3788.75, 1201.83, 17297.93, -4593.48, -16192.41, 24543.42, -12518.61, 282.26, 0.000, 0.000, 0.000, 15:10:42.193, 1583439042193
187, -4598.67, 1318.64, 17273.07, -4535.46, -16301.17, 24507.19, -12530.30, 245.42, 0.000, 0.000, 0.000, 15:10:42.201, 1583439042201
188, -5021.86, 1380.40, 17225.57, -4520.89, -16362.62, 24522.05, -12548.74, 178.72, 0.000, 0.000, 0.000, 15:10:42.201, 1583439042201
189, -4202.89, 1319.94, 17160.44, -4562.04, -16254.97, 24558.24, -12552.16, 119.27, 0.000, 0.000, 0.000, 15:10:42.209, 1583439042209
190, -3649.24, 1305.74, 17129.06, -4571.89, -16141.27, 24585.04, -12579.85, 74.41, 0.000, 0.000, 0.000, 15:10:42.209, 1583439042209
191, -4350.32, 1417.03, 17088.49, -4534.61, -16204.01, 24567.99, -12612.20, 5.39, 0.000, 0.000, 0.000, 15:10:42.216, 1583439042216
192, -4970.71, 1502.57, 17072.26, -4506.20, -16273.77, 24563.65, -12637.14, -63.34, 0.000, 0.000, 0.000, 15:10:42.216, 1583439042216
193, -4308.88, 1452.19, 16994.01, -4559.51, -16176.23, 24600.96, -12635.60, -95.22, 0.000, 0.000, 0.000, 15:10:42.224, 1583439042224
194, -3574.20, 1421.88, 16915.44, -4621.27, -16062.54, 24629.68, -12640.22, -113.93, 0.000, 0.000, 0.000, 15:10:42.224, 1583439042224
195, -4099.22, 1514.53, 16885.31, -4596.28, -16120.59, 24612.06, -12660.14, -159.73, 0.112, -0.018, 0.996, 15:10:42.232, 1583439042232
196, -4876.50, 1604.16, 16857.37, -4560.83, -16222.38, 24583.97, -12674.56, -200.61, 0.000, 0.000, 0.000, 15:10:42.232, 1583439042232
197, -4434.52, 1565.20, 16793.27, -4622.50, -16181.88, 24601.42, -12658.75, -176.56, 0.000, 0.000, 0.000, 15:10:42.238, 1583439042238
198, -3574.07, 1508.16, 16710.66, -4693.13, -16088.25, 24628.02, -12618.95, -145.78, 0.000, 0.000, 0.000, 15:10:42.238, 1583439042238
199, -3861.46, 1570.34, 16672.84, -4673.55, -16096.81, 24620.02, -12596.24, -145.29, 0.000, 0.000, 0.000, 15:10:42.246, 1583439042246
200, -4695.27, 1671.73, 16654.75, -4624.49, -16188.36, 24596.60, -12587.21, -141.20, 0.000, 0.000, 0.000, 15:10:42.246, 1583439042246
201, -4558.84, 1679.38, 16596.93, -4644.29, -16215.50, 24586.90, -12566.71, -119.22, 0.000, 0.000, 0.000, 15:10:42.254, 1583439042254
202, -3873.51, 1650.74, 16530.77, -4672.54, -16220.01, 24591.30, -12542.17, -60.35, 0.000, 0.000, 0.000, 15:10:42.261, 1583439042261
203, -3936.16, 1700.21, 16480.05, -4664.79, -16187.20, 24592.82, -12525.51, -6.01, 0.000, 0.000, 0.000, 15:10:42.261, 1583439042261
204, -4547.35, 1793.75, 16450.82, -4641.09, -16155.04, 24584.46, -12519.57, 23.63, 0.000, 0.000, 0.000, 15:10:42.268, 1583439042268
205, -4511.12, 1809.28, 16417.67, -4649.03, -16204.57, 24567.18, -12524.40, 78.05, 0.110, -0.020, 1.016, 15:10:42.268, 1583439042268
206, -3836.50, 1752.64, 16335.17, -4670.40, -16211.29, 24569.82, -12501.64, 104.25, 0.000, 0.000, 0.000, 15:10:42.276, 1583439042276
207, -3762.00, 1758.37, 16280.52, -4653.99, -16200.23, 24567.56, -12507.19, 98.48, 0.000, 0.000, 0.000, 15:10:42.276, 1583439042276
208, -4388.59, 1841.76, 16317.40, -4618.85, -16188.38, 24558.31, -12538.77, 93.45, 0.000, 0.000, 0.000, 15:10:42.284, 1583439042284
209, -4550.12, 1871.53, 16290.06, -4628.31, -16185.10, 24558.96, -12544.71, 107.31, 0.000, 0.000, 0.000, 15:10:42.285, 1583439042285
210, -3919.07, 1814.85, 16223.14, -4671.18, -16175.64, 24568.95, -12526.88, 94.08, 0.000, 0.000, 0.000, 15:10:42.292, 1583439042292
211, -3694.99, 1814.40, 16196.01, -4682.51, -16162.57, 24582.96, -12522.88, 82.10, 0.000, 0.000, 0.000, 15:10:42.292, 1583439042292
212, -4272.33, 1881.64, 16188.52, -4637.36, -16145.54, 24584.19, -12527.46, 60.17, 0.000, 0.000, 0.000, 15:10:42.299, 1583439042299
213, -4586.47, 1924.93, 16172.25, -4649.19, -16131.12, 24581.78, -12528.82, 42.42, 0.000, 0.000, 0.000, 15:10:42.300, 1583439042300
214, -4026.96, 1874.33, 16137.04, -4697.35, -16115.29, 24599.97, -12523.21, 35.27, 0.118, -0.028, 1.010, 15:10:42.307, 1583439042307
215, -3651.76, 1859.40, 16112.30, -4707.48, -16107.69, 24605.65, -12519.48, 29.93, 0.000, 0.000, 0.000, 15:10:42.307, 1583439042307
216, -4140.79, 1930.32, 16117.55, -4676.86, -16093.95, 24602.92, -12524.84, 7.89, 0.000, 0.000, 0.000, 15:10:42.314, 1583439042314
217, -4573.23, 1975.54, 16123.36, -4650.88, -16091.02, 24604.08, -12530.99, -9.34, 0.000, 0.000, 0.000, 15:10:42.321, 1583439042321
218, -4117.12, 1926.81, 16100.94, -4662.95, -16097.48, 24615.10, -12525.27, -22.75, 0.000, 0.000, 0.000, 15:10:42.321, 1583439042321
219, -3613.38, 1893.71, 16074.28, -4683.45, -16082.73, 24622.52, -12518.09, -31.09, 0.000, 0.000, 0.000, 15:10:42.328, 1583439042328
220, -3985.34, 1952.49, 16067.53, -4656.29, -16071.51, 24622.66, -12520.24, -41.17, 0.000, 0.000, 0.000, 15:10:42.329, 1583439042329
221, -4520.48, 2016.71, 16077.81, -4621.69, -16075.80, 24612.60, -12523.26, -49.20, 0.000, 0.000, 0.000, 15:10:42.336, 1583439042336
222, -4189.79, 1985.37, 16064.76, -4659.85, -16084.99, 24612.40, -12518.38, -51.92, 0.000, 0.000, 0.000, 15:10:42.336, 1583439042336
223, -3563.14, 1944.24, 16031.77, -4740.98, -16081.41, 24614.86, -12515.72, -73.27, 0.000, 0.000, 0.000, 15:10:42.344, 1583439042344
224, -3747.11, 1988.61, 16028.12, -4697.08, -16069.99, 24607.93, -12529.54, -94.15, 0.120, -0.028, 1.006, 15:10:42.344, 1583439042344
225, -4417.78, 2065.95, 16035.32, -4646.28, -16108.77, 24585.04, -12545.70, -119.83, 0.000, 0.000, 0.000, 15:10:42.351, 1583439042351
226, -4274.68, 2047.87, 16018.80, -4672.94, -16124.91, 24590.40, -12546.73, -135.99, 0.000, 0.000, 0.000, 15:10:42.351, 1583439042351
227, -3449.08, 1994.31, 15977.61, -4738.84, -16053.36, 24610.37, -12543.71, -134.38, 0.000, 0.000, 0.000, 15:10:42.359, 1583439042359
228, -3466.51, 2031.33, 15959.35, -4742.79, -16023.58, 24611.93, -12548.94, -154.58, 0.000, 0.000, 0.000, 15:10:42.359, 1583439042359
229, -4287.53, 2136.11, 15978.46, -4711.39, -16098.37, 24591.88, -12561.14, -188.83, 0.000, 0.000, 0.000, 15:10:42.367, 1583439042367
230, -4365.43, 2158.24, 15970.72, -4736.22, -16139.95, 24590.45, -12561.30, -200.67, 0.000, 0.000, 0.000, 15:10:42.367, 1583439042367
231, -3506.63, 2099.66, 15927.32, -4800.51, -16037.96, 24638.26, -12537.56, -198.15, 0.000, 0.000, 0.000, 15:10:42.374, 1583439042374
232, -3322.63, 2120.13, 15902.84, -4811.95, -15972.13, 24663.09, -12516.55, -196.25, 0.000, 0.000, 0.000, 15:10:42.374, 1583439042374
233, -4121.42, 2221.56, 15907.45, -4778.85, -16047.57, 24634.24, -12522.32, -208.05, 0.000, 0.000, 0.000, 15:10:42.381, 1583439042381
234, -4403.72, 2254.60, 15895.69, -4780.61, -16113.24, 24632.43, -12501.55, -233.64, 0.114, -0.022, 1.002, 15:10:42.389, 1583439042389
235, -3595.95, 2199.70, 15868.02, -4848.41, -16025.84, 24671.50, -12482.69, -218.85, 0.000, 0.000, 0.000, 15:10:42.389, 1583439042389
236, -3202.31, 2200.51, 15852.28, -4870.31, -15945.96, 24698.32, -12476.79, -213.55, 0.000, 0.000, 0.000, 15:10:42.397, 1583439042397
237, -3897.67, 2273.95, 15857.80, -4804.64, -16001.70, 24684.44, -12495.12, -233.89, 0.000, 0.000, 0.000, 15:10:42.397, 1583439042397
238, -4372.54, 2323.91, 15865.33, -4796.15, -16080.89, 24669.51, -12506.29, -245.02, 0.000, 0.000, 0.000, 15:10:42.403, 1583439042403
239, -3712.62, 2267.23, 15837.51, -4852.00, -16026.58, 24690.36, -12500.12, -231.77, 0.000, 0.000, 0.000, 15:10:42.404, 1583439042404
240, -3152.49, 2242.80, 15808.67, -4892.95, -15939.21, 24708.58, -12497.13, -220.46, 0.000, 0.000, 0.000, 15:10:42.411, 1583439042411
241, -3684.42, 2311.93, 15808.45, -4857.93, -15969.61, 24693.36, -12505.35, -238.60, 0.000, 0.000, 0.000, 15:10:42.411, 1583439042411
242, -4278.01, 2365.15, 15790.81, -4824.91, -16026.02, 24677.20, -12513.51, -251.48, 0.000, 0.000, 0.000, 15:10:42.420, 1583439042420
243, -3804.62, 2320.51, 15765.04, -4862.15, -16004.56, 24692.40, -12505.00, -235.86, 0.000, 0.000, 0.000, 15:10:42.420, 1583439042420
244, -3141.49, 2270.11, 15788.24, -4889.73, -15918.55, 24713.07, -12490.40, -221.91, 0.110, -0.016, 1.002, 15:10:42.426, 1583439042426
245, -3518.07, 2324.89, 15773.71, -4870.89, -15924.30, 24707.21, -12497.04, -224.23, 0.000, 0.000, 0.000, 15:10:42.427, 1583439042427
246, -4238.99, 2393.20, 15769.94, -4832.60, -16005.52, 24694.05, -12511.70, -244.80, 0.000, 0.000, 0.000, 15:10:42.435, 1583439042435
247, -3927.69, 2363.81, 15725.14, -4868.01, -15986.95, 24716.85, -12500.24, -253.87, 0.000, 0.000, 0.000, 15:10:42.436, 1583439042436
248, -3087.54, 2302.36, 15710.75, -4924.27, -15877.81, 24745.68, -12484.59, -244.62, 0.000, 0.000, 0.000, 15:10:42.441, 1583439042441
249, -3344.54, 2352.14, 15733.79, -4897.07, -15912.61, 24724.29, -12490.31, -255.95, 0.000, 0.000, 0.000, 15:10:42.449, 1583439042449
250, -4235.68, 2437.52, 15757.29, -4836.92, -16071.73, 24672.37, -12516.91, -274.50, 0.000, 0.000, 0.000, 15:10:42.449, 1583439042449
251, -4063.61, 2421.68, 15748.79, -4850.02, -16091.83, 24680.01, -12518.90, -272.56, 0.000, 0.000, 0.000, 15:10:42.456, 1583439042456
252, -3130.83, 2347.22, 15696.58, -4903.17, -15967.06, 24702.50, -12511.61, -246.96, 0.000, 0.000, 0.000, 15:10:42.456, 1583439042456
253, -3202.33, 2376.44, 15697.05, -4882.69, -15975.37, 24687.32, -12525.96, -255.30, 0.000, 0.000, 0.000, 15:10:42.463, 1583439042463
254, -4128.55, 2472.35, 15729.68, -4818.68, -16104.30, 24649.90, -12554.82, -276.07, 0.114, -0.014, 0.998, 15:10:42.464, 1583439042464
255, -4182.99, 2470.18, 15723.22, -4811.32, -16108.25, 24649.21, -12558.15, -265.56, 0.000, 0.000, 0.000, 15:10:42.472, 1583439042472
0, -3238.39, 2392.62, 15692.22, -4861.88, -15978.34, 24672.17, -12547.13, -234.89, 0.000, 0.000, 0.000, 15:10:42.472, 1583439042472
1, -3071.82, 2397.16, 15679.55, -4858.24, -15938.34, 24678.61, -12548.09, -232.99, 0.000, 0.000, 0.000, 15:10:42.480, 1583439042480
2, -3969.83, 2482.45, 15700.18, -4800.91, -16044.24, 24641.17, -12572.57, -250.61, 0.000, 0.000, 0.000, 15:10:42.480, 1583439042480
3, -4262.59, 2503.93, 15708.67, -4803.88, -16088.09, 24624.65, -12584.93, -248.86, 0.000, 0.000, 0.000, 15:10:42.486, 1583439042486
4, -3373.77, 2431.85, 15683.73, -4882.27, -15945.60, 24657.08, -12571.78, -221.48, 0.000, 0.000, 0.000, 15:10:42.486, 1583439042486
5, -2967.98, 2401.76, 15668.57, -4898.45, -15879.86, 24665.17, -12568.85, -217.80, 0.000, 0.000, 0.000, 15:10:42.494, 1583439042494
6, -3790.90, 2486.54, 15686.43, -4856.43, -15967.46, 24636.94, -12593.33, -242.14, 0.000, 0.000, 0.000, 15:10:42.495, 1583439042495
7, -4314.60, 2538.69, 15702.01, -4853.61, -16025.42, 24616.38, -12603.86, -244.86, 0.000, 0.000, 0.000, 15:10:42.503, 1583439042503
8, -3539.22, 2456.84, 15685.98, -4895.39, -15920.92, 24635.94, -12601.31, -217.80, 0.112, -0.010, 0.998, 15:10:42.510, 1583439042510
9, -2926.38, 2408.02, 15663.39, -4928.74, -15838.85, 24653.28, -12598.99, -203.45, 0.000, 0.000, 0.000, 15:10:42.510, 1583439042510
10, -3603.37, 2479.84, 15676.73, -4885.98, -15908.70, 24627.71, -12619.44, -227.85, 0.000, 0.000, 0.000, 15:10:42.516, 1583439042516
11, -4319.54, 2536.95, 15707.11, -4847.58, -16005.21, 24607.01, -12640.40, -239.28, 0.000, 0.000, 0.000, 15:10:42.516, 1583439042516
12, -3806.64, 2481.89, 15703.93, -4893.29, -15948.21, 24622.72, -12635.46, -231.23, 0.000, 0.000, 0.000, 15:10:42.524, 1583439042524
13, -3201.04, 2428.45, 15687.77, -4924.92, -15906.37, 24635.60, -12630.72, -226.56, 0.000, 0.000, 0.000, 15:10:42.524, 1583439042524
14, -3549.55, 2472.28, 15707.08, -4898.92, -15882.77, 24633.52, -12635.82, -248.93, 0.000, 0.000, 0.000, 15:10:42.532, 1583439042532
15, -4125.22, 2523.04, 15736.77, -4862.26, -15864.42, 24636.03, -12655.58, -260.02, 0.000, 0.000, 0.000, 15:10:42.532, 1583439042532
16, -3857.08, 2485.54, 15739.67, -4875.85, -15878.39, 24647.51, -12657.59, -262.79, 0.000, 0.000, 0.000, 15:10:42.539, 1583439042539
17, -3258.06, 2428.38, 15733.57, -4909.90, -15884.87, 24655.20, -12648.32, -259.88, 0.114, -0.014, 0.982, 15:10:42.539, 1583439042539
18, -3456.38, 2454.13, 15747.07, -4902.32, -15864.60, 24662.78, -12646.21, -271.39, 0.000, 0.000, 0.000, 15:10:42.547, 1583439042547
19, -4082.68, 2518.95, 15777.85, -4867.63, -15852.57, 24666.00, -12654.24, -276.38, 0.000, 0.000, 0.000, 15:10:42.547, 1583439042547
20, -3978.68, 2499.77, 15791.89, -4872.90, -15861.49, 24676.79, -12654.98, -282.26, 0.000, 0.000, 0.000, 15:10:42.554, 1583439042554
21, -3340.56, 2436.83, 15786.99, -4902.07, -15865.38, 24688.08, -12650.55, -283.96, 0.000, 0.000, 0.000, 15:10:42.555, 1583439042555
22, -3375.23, 2444.12, 15797.70, -4879.92, -15858.32, 24690.47, -12664.10, -286.95, 0.000, 0.000, 0.000, 15:10:42.562, 1583439042562
23, -4005.57, 2505.30, 15829.57, -4844.90, -15853.00, 24686.92, -12672.72, -296.25, 0.000, 0.000, 0.000, 15:10:42.568, 1583439042568
24, -4058.16, 2507.15, 15851.63, -4860.32, -15855.41, 24694.86, -12671.00, -305.15, 0.000, 0.000, 0.000, 15:10:42.568, 1583439042568
25, -3422.32, 2453.91, 15837.64, -4928.58, -15876.20, 24709.81, -12663.47, -308.25, 0.000, 0.000, 0.000, 15:10:42.576, 1583439042576
26, -3294.83, 2440.45, 15837.80, -4910.03, -15873.09, 24722.01, -12658.82, -315.63, 0.000, 0.000, 0.000, 15:10:42.576, 1583439042576
27, -3886.23, 2501.47, 15855.08, -4862.47, -15850.45, 24721.16, -12661.79, -313.15, 0.108, -0.014, 0.994, 15:10:42.584, 1583439042584
28, -4094.10, 2521.61, 15859.05, -4864.75, -15847.65, 24725.72, -12654.69, -322.33, 0.000, 0.000, 0.000, 15:10:42.584, 1583439042584
29, -3504.44, 2461.53, 15832.25, -4904.96, -15863.75, 24734.95, -12638.99, -318.80, 0.000, 0.000, 0.000, 15:10:42.591, 1583439042591
30, -3229.80, 2446.62, 15808.14, -4921.76, -15876.94, 24735.42, -12640.94, -310.15, 0.000, 0.000, 0.000, 15:10:42.591, 1583439042591
31, -3762.36, 2509.07, 15814.89, -4901.54, -15869.18, 24726.71, -12646.28, -314.42, 0.000, 0.000, 0.000, 15:10:42.599, 1583439042599
32, -4101.28, 2537.01, 15817.52, -4880.32, -15849.33, 24753.39, -12630.34, -346.83, 0.000, 0.000, 0.000, 15:10:42.599, 1583439042599
33, -3593.96, 2487.26, 15783.37, -4919.22, -15871.71, 24775.59, -12626.43, -345.49, 0.000, 0.000, 0.000, 15:10:42.607, 1583439042607
34, -3180.16, 2456.84, 15749.58, -4933.07, -15898.04, 24734.95, -12645.63, -294.53, 0.000, 0.000, 0.000, 15:10:42.607, 1583439042607
35, -3612.73, 2505.83, 15737.42, -4913.63, -15893.07, 24720.47, -12644.11, -286.62, 0.000, 0.000, 0.000, 15:10:42.615, 1583439042615
36, -4074.30, 2564.21, 15728.56, -4914.30, -15890.35, 24723.58, -12628.80, -301.61, 0.000, 0.000, 0.000, 15:10:42.615, 1583439042615
37, -3673.58, 2508.33, 15698.50, -4932.78, -15904.61, 24729.70, -12610.47, -310.09, 0.104, -0.012, 1.004, 15:10:42.621, 1583439042621
38, -3152.47, 2468.71, 15660.10, -4951.29, -15923.74, 24734.53, -12611.75, -308.10, 0.000, 0.000, 0.000, 15:10:42.621, 1583439042621
39, -3462.06, 2520.78, 15651.96, -4927.17, -15921.33, 24728.61, -12614.88, -299.56, 0.000, 0.000, 0.000, 15:10:42.628, 1583439042628
40, -4006.17, 2581.00, 15646.00, -4900.04, -15919.05, 24720.27, -12618.48, -298.19, 0.000, 0.000, 0.000, 15:10:42.636, 1583439042636
41, -3752.79, 2558.54, 15616.69, -4928.38, -15935.52, 24724.09, -12606.27, -302.02, 0.000, 0.000, 0.000, 15:10:42.637, 1583439042637
42, -3149.83, 2516.72, 15579.41, -4974.63, -15960.04, 24735.11, -12596.19, -296.07, 0.000, 0.000, 0.000, 15:10:42.645, 1583439042645
43, -3320.49, 2549.46, 15575.57, -4942.17, -15950.05, 24725.74, -12597.78, -290.30, 0.000, 0.000, 0.000, 15:10:42.645, 1583439042645
44, -3932.32, 2609.63, 15575.21, -4891.97, -15927.90, 24718.57, -12601.04, -304.54, 0.000, 0.000, 0.000, 15:10:42.651, 1583439042651
45, -3842.00, 2605.68, 15551.96, -4910.92, -15931.41, 24725.52, -12597.58, -320.03, 0.000, 0.000, 0.000, 15:10:42.652, 1583439042652
46, -3198.40, 2555.88, 15516.87, -4950.49, -15973.83, 24734.26, -12595.97, -307.72, 0.000, 0.000, 0.000, 15:10:42.659, 1583439042659
47, -3220.33, 2582.43, 15500.00, -4950.02, -15970.57, 24726.13, -12594.51, -298.37, 0.102, -0.012, 0.994, 15:10:42.659, 1583439042659
48, -3854.42, 2660.62, 15503.91, -4919.15, -15948.48, 24718.70, -12597.82, -306.73, 0.000, 0.000, 0.000, 15:10:42.667, 1583439042667
49, -3920.05, 2664.69, 15491.70, -4911.71, -15954.25, 24724.00, -12589.11, -315.09, 0.000, 0.000, 0.000, 15:10:42.667, 1583439042667
50, -3282.69, 2610.48, 15455.85, -4958.42, -15965.45, 24735.83, -12572.01, -319.00, 0.000, 0.000, 0.000, 15:10:42.674, 1583439042674
51, -3141.87, 2621.10, 15435.35, -4953.39, -15955.84, 24737.72, -12568.36, -310.71, 0.000, 0.000, 0.000, 15:10:42.674, 1583439042674
52, -3749.04, 2687.71, 15437.34, -4905.43, -15938.45, 24734.57, -12577.37, -318.36, 0.000, 0.000, 0.000, 15:10:42.682, 1583439042682
53, -3991.86, 2718.67, 15428.98, -4900.64, -15923.81, 24722.77, -12578.22, -316.41, 0.000, 0.000, 0.000, 15:10:42.682, 1583439042682
54, -3409.71, 2667.86, 15397.07, -4934.97, -15937.89, 24721.39, -12568.25, -286.66, 0.000, 0.000, 0.000, 15:10:42.689, 1583439042689
55, -3107.43, 2658.99, 15370.15, -4943.18, -15941.87, 24735.15, -12562.40, -286.86, 0.000, 0.000, 0.000, 15:10:42.697, 1583439042697
56, -3655.31, 2731.81, 15365.04, -4914.79, -15916.25, 24738.64, -12559.98, -304.81, 0.000, 0.000, 0.000, 15:10:42.697, 1583439042697
57, -4042.25, 2772.40, 15356.41, -4891.05, -15916.14, 24725.57, -12566.22, -303.02, 0.102, -0.016, 0.996, 15:10:42.703, 1583439042703
58, -3542.59, 2727.34, 15313.56, -4927.15, -15921.79, 24727.42, -12560.61, -261.98, 0.000, 0.000, 0.000, 15:10:42.703, 1583439042703
59, -3106.20, 2694.82, 15268.41, -4932.16, -15924.57, 24733.79, -12548.00, -257.65, 0.000, 0.000, 0.000, 15:10:42.711, 1583439042711
60, -3550.69, 2755.34, 15253.12, -4908.26, -15900.85, 24733.54, -12544.13, -274.84, 0.000, 0.000, 0.000, 15:10:42.712, 1583439042712
61, -4054.14, 2804.70, 15249.05, -4875.16, -15884.24, 24735.47, -12554.86, -288.99, 0.000, 0.000, 0.000, 15:10:42.720, 1583439042720
62, -3677.78, 2774.21, 15221.27, -4919.04, -15883.28, 24751.27, -12545.79, -283.33, 0.000, 0.000, 0.000, 15:10:42.720, 1583439042720
63, -3127.10, 2729.55, 15191.83, -4926.08, -15894.59, 24764.10, -12523.50, -276.16, 0.000, 0.000, 0.000, 15:10:42.726, 1583439042726
64, -3437.88, 2775.57, 15190.45, -4896.84, -15874.03, 24777.06, -12512.26, -277.27, 0.000, 0.000, 0.000, 15:10:42.727, 1583439042727
65, -4025.73, 2833.55, 15207.03, -4856.65, -15854.52, 24764.12, -12515.99, -266.21, 0.000, 0.000, 0.000, 15:10:42.734, 1583439042734
66, -3793.85, 2812.59, 15198.60, -4879.25, -15864.53, 24765.15, -12500.84, -263.88, 0.000, 0.000, 0.000, 15:10:42.734, 1583439042734
67, -3164.94, 2767.15, 15180.25, -4922.28, -15879.59, 24779.66, -12482.93, -251.30, 0.104, -0.018, 0.996, 15:10:42.742, 1583439042742
68, -3318.50, 2790.12, 15189.78, -4902.72, -15879.55, 24777.89, -12477.73, -244.42, 0.000, 0.000, 0.000, 15:10:42.742, 1583439042742
69, -3952.62, 2855.97, 15215.14, -4864.34, -15863.46, 24770.65, -12477.48, -242.25, 0.000, 0.000, 0.000, 15:10:42.749, 1583439042749
70, -3881.31, 2843.88, 15225.09, -4871.79, -15862.38, 24774.74, -12472.18, -241.42, 0.000, 0.000, 0.000, 15:10:42.756, 1583439042756
71, -3221.40, 2783.10, 15217.42, -4913.83, -15879.95, 24782.54, -12464.63, -239.68, 0.000, 0.000, 0.000, 15:10:42.756, 1583439042756
72, -3211.79, 2801.48, 15227.66, -4920.42, -15878.08, 24781.74, -12477.73, -232.84, 0.000, 0.000, 0.000, 15:10:42.764, 1583439042764
73, -3848.95, 2874.19, 15262.44, -4888.08, -15863.35, 24775.66, -12503.54, -234.29, 0.000, 0.000, 0.000, 15:10:42.764, 1583439042764
74, -3948.28, 2887.78, 15282.09, -4918.26, -15862.29, 24775.86, -12508.91, -245.78, 0.000, 0.000, 0.000, 15:10:42.771, 1583439042771
75, -3300.61, 2819.02, 15282.07, -4932.67, -15877.20, 24792.87, -12500.73, -250.65, 0.000, 0.000, 0.000, 15:10:42.772, 1583439042772
76, -3120.17, 2801.14, 15295.03, -4908.55, -15871.73, 24799.39, -12500.28, -251.84, 0.000, 0.000, 0.000, 15:10:42.779, 1583439042779
77, -3734.84, 2872.42, 15328.40, -4880.79, -15863.79, 24796.51, -12509.24, -245.62, 0.106, -0.016, 0.990, 15:10:42.780, 1583439042780
78, -3995.42, 2898.33, 15353.46, -4878.96, -15859.93, 24798.16, -12503.39, -252.11, 0.000, 0.000, 0.000, 15:10:42.786, 1583439042786
79, -3404.73, 2839.99, 15349.61, -4912.49, -15869.16, 24809.63, -12485.46, -249.85, 0.000, 0.000, 0.000, 15:10:42.786, 1583439042786
80, -3065.41, 2820.16, 15345.88, -4931.17, -15863.99, 24815.98, -12478.35, -245.44, 0.000, 0.000, 0.000, 15:10:42.794, 1583439042794
81, -3592.46, 2881.90, 15362.04, -4908.13, -15852.44, 24815.04, -12475.16, -255.64, 0.000, 0.000, 0.000, 15:10:42.794, 1583439042794
82, -4079.35, 2922.33, 15377.06, -4873.91, -15871.84, 24809.45, -12481.73, -274.12, 0.000, 0.000, 0.000, 15:10:42.802, 1583439042802
83, -3562.94, 2870.17, 15359.63, -4883.39, -15889.77, 24824.81, -12484.79, -268.78, 0.000, 0.000, 0.000, 15:10:42.802, 1583439042802
84, -2929.35, 2822.82, 15324.80, -4919.33, -15840.55, 24841.19, -12489.80, -258.81, 0.000, 0.000, 0.000, 15:10:42.809, 1583439042809
85, -3369.32, 2875.42, 15316.82, -4883.77, -15838.40, 24837.48, -12505.76, -274.81, 0.000, 0.000, 0.000, 15:10:42.816, 1583439042816
86, -4086.77, 2939.68, 15319.77, -4844.79, -15900.40, 24827.76, -12531.26, -293.17, 0.110, -0.016, 0.994, 15:10:42.816, 1583439042816
87, -3711.89, 2895.51, 15287.97, -4876.44, -15904.52, 24839.11, -12526.77, -294.75, 0.000, 0.000, 0.000, 15:10:42.824, 1583439042824
88, -2923.21, 2828.50, 15239.06, -4918.81, -15838.67, 24865.78, -12517.29, -288.07, 0.000, 0.000, 0.000, 15:10:42.824, 1583439042824
89, -3215.16, 2872.22, 15220.84, -4894.94, -15836.34, 24865.96, -12539.42, -292.67, 0.000, 0.000, 0.000, 15:10:42.832, 1583439042832
90, -4040.10, 2944.40, 15222.28, -4836.34, -15909.23, 24850.18, -12556.07, -321.82, 0.000, 0.000, 0.000, 15:10:42.832, 1583439042832
91, -3851.99, 2913.30, 15195.50, -4843.09, -15932.86, 24860.26, -12562.15, -326.13, 0.000, 0.000, 0.000, 15:10:42.839, 1583439042839
92, -2979.73, 2836.39, 15145.41, -4899.48, -15860.17, 24890.16, -12561.48, -313.10, 0.000, 0.000, 0.000, 15:10:42.839, 1583439042839
93, -3071.15, 2856.06, 15119.81, -4883.65, -15831.76, 24895.89, -12566.71, -328.88, 0.000, 0.000, 0.000, 15:10:42.846, 1583439042846
94, -3950.42, 2937.51, 15120.33, -4825.58, -15906.24, 24878.34, -12592.88, -350.30, 0.000, 0.000, 0.000, 15:10:42.847, 1583439042847
95, -3972.55, 2928.08, 15102.34, -4832.56, -15938.16, 24876.84, -12595.45, -354.54, 0.000, 0.000, 0.000, 15:10:42.854, 1583439042854
96, -3073.61, 2853.69, 15055.26, -4904.06, -15856.46, 24897.65, -12567.74, -327.97, 0.108, -0.016, 1.008, 15:10:42.855, 1583439042855
97, -2950.47, 2845.02, 15024.69, -4902.01, -15821.21, 24906.97, -12555.89, -319.70, 0.000, 0.000, 0.000, 15:10:42.862, 1583439042862
98, -3825.05, 2921.78, 15029.63, -4840.43, -15896.69, 24886.61, -12577.26, -338.27, 0.000, 0.000, 0.000, 15:10:42.862, 1583439042862
99, -4069.20, 2929.82, 15022.74, -4829.47, -15939.12, 24879.35, -12588.14, -349.72, 0.000, 0.000, 0.000, 15:10:42.868, 1583439042868
100, -3204.55, 2852.15, 14983.42, -4891.52, -15853.47, 24907.31, -12585.84, -335.66, 0.000, 0.000, 0.000, 15:10:42.868, 1583439042868
101, -2865.18, 2829.71, 14956.76, -4896.84, -15791.17, 24921.39, -12587.70, -334.43, 0.000, 0.000, 0.000, 15:10:42.876, 1583439042876
102, -3673.35, 2905.79, 14970.10, -4837.45, -15850.43, 24899.91, -12607.59, -344.75, 0.000, 0.000, 0.000, 15:10:42.884, 1583439042884
103, -4132.37, 2939.77, 14981.32, -4819.73, -15911.87, 24882.70, -12609.83, -360.96, 0.000, 0.000, 0.000, 15:10:42.884, 1583439042884
104, -3363.74, 2865.65, 14955.84, -4876.70, -15860.10, 24905.70, -12600.48, -346.32, 0.000, 0.000, 0.000, 15:10:42.892, 1583439042892
105, -2812.10, 2823.76, 14931.03, -4917.41, -15778.59, 24927.98, -12593.73, -331.57, 0.000, 0.000, 0.000, 15:10:42.892, 1583439042892
106, -3495.01, 2889.99, 14947.93, -4844.99, -15824.16, 24891.77, -12614.16, -331.03, 0.106, -0.016, 1.004, 15:10:42.900, 1583439042900
107, -4139.79, 2933.13, 14967.22, -4796.33, -15894.46, 24872.82, -12608.04, -346.27, 0.000, 0.000, 0.000, 15:10:42.900, 1583439042900
108, -3526.68, 2869.14, 14947.68, -4849.99, -15846.36, 24891.08, -12570.04, -339.39, 0.000, 0.000, 0.000, 15:10:42.906, 1583439042906
109, -2812.27, 2813.21, 14919.77, -4902.21, -15752.77, 24912.16, -12546.30, -335.77, 0.000, 0.000, 0.000, 15:10:42.906, 1583439042906
110, -3329.67, 2871.15, 14928.93, -4861.84, -15780.40, 24903.22, -12572.21, -338.58, 0.000, 0.000, 0.000, 15:10:42.914, 1583439042914
111, -4114.29, 2928.37, 14950.92, -4811.64, -15882.90, 24876.73, -12612.46, -338.67, 0.000, 0.000, 0.000, 15:10:42.914, 1583439042914
112, -3696.82, 2877.21, 14936.53, -4853.37, -15865.74, 24883.08, -12598.27, -322.63, 0.000, 0.000, 0.000, 15:10:42.922, 1583439042922
113, -2857.51, 2804.38, 14907.96, -4902.21, -15774.79, 24906.50, -12581.19, -297.68, 0.000, 0.000, 0.000, 15:10:42.923, 1583439042923
114, -3173.14, 2842.67, 14908.48, -4876.50, -15780.42, 24901.70, -12582.71, -306.73, 0.000, 0.000, 0.000, 15:10:42.930, 1583439042930
115, -4052.28, 2918.71, 14930.32, -4830.01, -15864.82, 24882.27, -12589.22, -335.37, 0.000, 0.000, 0.000, 15:10:42.931, 1583439042931
116, -3862.98, 2888.81, 14921.98, -4853.37, -15868.31, 24885.83, -12591.14, -328.17, 0.110, -0.018, 1.002, 15:10:42.936, 1583439042936
117, -2960.35, 2818.55, 14887.25, -4929.41, -15782.79, 24918.24, -12593.20, -310.33, 0.000, 0.000, 0.000, 15:10:42.944, 1583439042944
118, -3048.20, 2837.06, 14884.21, -4911.77, -15749.69, 24928.21, -12604.44, -323.32, 0.000, 0.000, 0.000, 15:10:42.944, 1583439042944
119, -3954.49, 2906.60, 14914.94, -4825.16, -15824.50, 24901.16, -12638.53, -327.81, 0.000, 0.000, 0.000, 15:10:42.952, 1583439042952
120, -4008.54, 2902.84, 14917.62, -4838.30, -15858.16, 24899.51, -12643.73, -320.79, 0.000, 0.000, 0.000, 15:10:42.952, 1583439042952
121, -3104.99, 2821.46, 14886.98, -4896.80, -15776.84, 24929.26, -12637.47, -314.85, 0.000, 0.000, 0.000, 15:10:42.959, 1583439042959
122, -2951.17, 2822.49, 14875.96, -4898.59, -15747.36, 24936.46, -12640.45, -300.79, 0.000, 0.000, 0.000, 15:10:42.959, 1583439042959
123, -3824.74, 2907.60, 14897.84, -4845.66, -15810.66, 24920.56, -12651.71, -324.46, 0.000, 0.000, 0.000, 15:10:42.966, 1583439042966
124, -4120.37, 2924.46, 14905.26, -4838.82, -15830.00, 24919.69, -12656.54, -345.31, 0.000, 0.000, 0.000, 15:10:42.966, 1583439042966
125, -3283.54, 2846.81, 14875.64, -4905.83, -15799.87, 24939.85, -12639.49, -316.17, 0.000, 0.000, 0.000, 15:10:42.974, 1583439042974
126, -2901.41, 2824.05, 14854.72, -4920.58, -15730.31, 24951.92, -12634.90, -298.84, 0.108, -0.016, 1.010, 15:10:42.974, 1583439042974
127, -3577.15, 2888.99, 14868.51, -4854.93, -15725.39, 24945.75, -12635.80, -310.82, 0.000, 0.000, 0.000, 15:10:42.982, 1583439042982
128, -3932.70, 2917.39, 14875.89, -4841.54, -15725.52, 24936.86, -12633.50, -311.81, 0.000, 0.000, 0.000, 15:10:42.982, 1583439042982
129, -3376.10, 2861.34, 14853.02, -4878.22, -15773.87, 24940.93, -12618.77, -304.30, 0.000, 0.000, 0.000, 15:10:42.989, 1583439042989
